

 Program UNIPLOT                         version 05.26.04
 _______________
 (c) Fugro Engineers BV, Leidschendam, Holland


 ASCII representation of data plotted on a graph.

 This ASCII file presents data interpolated to values per fixed depth interval.
 The data are corrected for the depth-offset differences between the various 
 transducers in the penetrometer.

 The records at the start of penetration may include no values or anomalous
 values where a depth offset implies incomplete penetration of a particular
 sensor into the ground.

 The records at the end of penetration may include no values for data channels
 where the transducer did not reach this depth.

 UNICAS data file          : CPT-7C.002                              
 Output using command file : Seacalf qc 5MPa.cmd

 ASCII file created at : date          :04-Nov-2014
                         time          :16:02:16
 Project number                        :N5955/02 (1)                                                                                        
 Date of testing                       :28-Oct-2014                                                                                         
 Location                              :CPT-7C                                                                                              
 Test name                             :CPT-7C.002
 Penetrometer                          :CP15-CF75PB30SN2
 Serial no                             :1701-2588

 Table description:
 Column id                             :Parameter name
 ___________________________________________________________________________________
 Rec                                   :Record ID, Record ID [-]
 Depth                                 :Depth, Depth [m]
 Time                                  :Time, Time [s]
 Cone                                  :Cone Resistance, Cone Resistance [MPa]
 Friction                              :Sleeve Friction, Sleeve Friction [MPa]
 Pore 2                                :Porewater Pressure, Porewater Pressure at Shoulder [MPa]
 SlopeOmni                             :Slope, Slope [Deg]


 Data table:
  Rec    Depth      Time       Cone   Friction     Pore 2  SlopeOmni
   No        m         s        MPa        MPa        MPa        Deg
    1    0.000   2543.63     0.0737                           4.7199
    2    0.020   2545.06     0.1025                0.0007     4.7120
    3    0.040   2546.09     0.1609                0.0008     4.6951
    4    0.060   2547.25     0.2401     0.0020     0.0008     4.6921
    5    0.080   2548.13     0.2970     0.0022     0.0012     4.6937
    6    0.100   2548.90     0.3425     0.0028     0.0012     4.7028
    7    0.120   2549.84     0.4129     0.0033     0.0009     4.7201
    8    0.140   2550.85     0.5427     0.0037     0.0012     4.7273
    9    0.160   2551.76     0.7140     0.0045     0.0012     4.7110
   10    0.180   2552.63     0.8465     0.0052     0.0017     4.6734
   11    0.200   2553.54     1.0045     0.0066     0.0015     4.6806
   12    0.220   2554.43     1.1558     0.0076     0.0020     4.7095
   13    0.240   2555.30     1.3189     0.0087     0.0025     4.6721
   14    0.260   2556.26     1.4717     0.0090     0.0027     4.6733
   15    0.280   2557.13     1.6019     0.0100     0.0029     4.7287
   16    0.300   2557.95     1.7234     0.0093     0.0035     4.7019
   17    0.320   2558.83     1.8686     0.0088     0.0034     4.7235
   18    0.340   2559.71     1.9665     0.0084     0.0037     4.7454
   19    0.360   2560.73     2.0399     0.0085     0.0045     4.7949
   20    0.380   2561.61     2.0968     0.0090     0.0045     4.7935
   21    0.400   2562.50     2.0886     0.0103     0.0048     4.7563
   22    0.420   2563.25     2.0555     0.0124     0.0051     4.7476
   23    0.440   2564.32     2.2467     0.0152     0.0046     4.7549
   24    0.460   2565.19     2.4193     0.0167     0.0049     4.7410
   25    0.480   2565.99     2.5896     0.0180     0.0048     4.7376
   26    0.500   2566.88     2.7239     0.0192     0.0052     4.7362
   27    0.520   2567.84     2.8549     0.0191     0.0056     4.7211
   28    0.540   2568.78     3.0032     0.0184     0.0061     4.6819
   29    0.560   2569.70     3.1451     0.0178     0.0063     4.6754
   30    0.580   2570.60     3.3119     0.0176     0.0062     4.6415
   31    0.600   2571.45     3.5249     0.0181     0.0061     4.6310
   32    0.620   2572.38     3.8008     0.0196     0.0061     4.6345
   33    0.640   2573.33     4.0946     0.0214     0.0065     4.6447
   34    0.660   2574.20     4.4081     0.0237     0.0068     4.6315
   35    0.680   2575.16     4.7617     0.0262     0.0066     4.6301
   36    0.700   2576.04     5.0719     0.0287     0.0068     4.6452
   37    0.720   2576.82     5.3489     0.0312     0.0071     4.6626
   38    0.740   2577.78     5.5385     0.0331     0.0075     4.6601
   39    0.760   2578.75     5.6645     0.0348     0.0079     4.6607
   40    0.780   2579.49     5.7919     0.0367     0.0082     4.6674
   41    0.800   2580.44     5.8749     0.0383     0.0085     4.6750
   42    0.820   2581.36     5.8984     0.0386     0.0086     4.6697
   43    0.840   2582.18     5.8648     0.0385     0.0090     4.6510
   44    0.860   2583.13     5.8553     0.0373     0.0098     4.6916
   45    0.880   2584.03     5.9296     0.0362     0.0102     4.6940
   46    0.900   2584.94     6.1180     0.0366     0.0104     4.7133
   47    0.920   2585.79     6.4773     0.0378     0.0102     4.7397
   48    0.940   2586.59     7.0515     0.0404     0.0097     4.7521
   49    0.960   2587.60     7.6778     0.0420     0.0097     4.7609
   50    0.980   2588.51     8.2036     0.0437     0.0100     4.7780
   51    1.000   2589.28     8.6134     0.0457     0.0100     4.8029
   52    1.020   2590.31     8.9945     0.0483     0.0103     4.8099
   53    1.040   2591.22     9.3974     0.0510     0.0104     4.7971
   54    1.060   2592.18     9.8513     0.0527     0.0107     4.8088
   55    1.080   2593.05    10.3252     0.0557     0.0107     4.8023
   56    1.100   2593.90    10.7552     0.0592     0.0113     4.8224
   57    1.120   2594.88    11.1878     0.0616     0.0111     4.8233
   58    1.140   2595.85    11.5095     0.0628     0.0112     4.8216
   59    1.160   2596.88    11.6885     0.0644     0.0120     4.8068
   60    1.180   2597.81    11.9154     0.0662     0.0118     4.8187
   61    1.200   2598.79    12.2518     0.0684     0.0123     4.8092
   62    1.220   2599.83    12.5686     0.0705     0.0123     4.8408
   63    1.240   2600.74    12.8659     0.0727     0.0129     4.8292
   64    1.260   2601.56    13.1400     0.0748     0.0129     4.8455
   65    1.280   2602.48    13.3945     0.0760     0.0132     4.8112
   66    1.300   2603.39    13.5953     0.0767     0.0134     4.8077
   67    1.320   2604.38    13.6437     0.0774     0.0136     4.8206
   68    1.340   2605.12    13.6339     0.0783     0.0140     4.7818
   69    1.360   2606.25    13.8409     0.0797     0.0139     4.7622
   70    1.380   2607.03    14.0143     0.0807     0.0144     4.7963
   71    1.400   2607.92    14.0687     0.0818     0.0149     4.7726
   72    1.420   2608.93    13.9986     0.0832     0.0146     4.7584
   73    1.440   2609.81    13.8807     0.0853     0.0155     4.7529
   74    1.460   2610.63    13.8040     0.0868     0.0155     4.7615
   75    1.480   2611.61    13.6580     0.0880     0.0155     4.7304
   76    1.500   2612.56    13.3323     0.0877     0.0162     4.7730
   77    1.520   2613.43    12.9564     0.0861     0.0170     4.7720
   78    1.540   2614.34    12.6446     0.0832     0.0170     4.7869
   79    1.560   2615.26    12.4266     0.0793     0.0171     4.7712
   80    1.580   2616.08    12.2869     0.0754     0.0172     4.8136
   81    1.600   2617.00    12.3205     0.0727     0.0174     4.8023
   82    1.620   2617.87    12.4868     0.0698     0.0175     4.8477
   83    1.640   2618.81    12.6950     0.0669     0.0176     4.8217
   84    1.660   2619.82    12.9240     0.0646     0.0179     4.8499
   85    1.680   2620.77    13.1663     0.0634     0.0183     4.8469
   86    1.700   2621.64    13.3539     0.0635     0.0181     4.8489
   87    1.720   2622.54    13.5289     0.0636     0.0182     4.8500
   88    1.740   2623.50    13.7093     0.0630     0.0182     4.8477
   89    1.760   2624.37    13.8176     0.0619     0.0191     4.8500
   90    1.780   2625.23    13.8398     0.0590     0.0192     4.8552
   91    1.800   2626.05    13.8737     0.0578     0.0190     4.8422
   92    1.820   2626.98    13.7883     0.0579     0.0191     4.8400
   93    1.840   2627.86    13.6846     0.0574     0.0197     4.8755
   94    1.860   2628.78    13.5811     0.0568     0.0194     4.8468
   95    1.880   2629.77    13.3772     0.0575     0.0195     4.8521
   96    1.900   2630.61    13.0574     0.0573     0.0201     4.8158
   97    1.920   2631.57    12.7913     0.0551     0.0206     4.8285
   98    1.940   2632.47    12.6109     0.0523     0.0212     4.8181
   99    1.960   2633.28    12.7074     0.0497     0.0212     4.8440
  100    1.980   2634.26    13.1936     0.0475     0.0211     4.8507
  101    2.000   2635.12    13.7528     0.0451     0.0217     4.9085
  102    2.020   2636.05    14.2091     0.0450     0.0210     4.8662
  103    2.040   2637.11    14.2208     0.0469     0.0213     4.8878
  104    2.060   2637.98    14.1073     0.0489     0.0216     4.8634
  105    2.080   2638.84    14.0241     0.0514     0.0213     4.8456
  106    2.100   2639.63    13.9964     0.0545     0.0220     4.8605
  107    2.120   2640.58    13.9115     0.0550     0.0223     4.8155
  108    2.140   2641.63    13.8052     0.0541     0.0223     4.8585
  109    2.160   2642.44    13.8217     0.0527     0.0233     4.8693
  110    2.180   2643.36    13.9829     0.0523     0.0236     4.8600
  111    2.200   2644.27    14.1048     0.0526     0.0233     4.8494
  112    2.220   2645.18    14.2194     0.0534     0.0235     4.8439
  113    2.240   2646.05    14.2602     0.0533     0.0236     4.8054
  114    2.260   2647.08    14.2170     0.0536     0.0232     4.8073
  115    2.280   2647.95    14.1129     0.0545     0.0238     4.8155
  116    2.300   2648.86    13.9303     0.0557     0.0240     4.8097
  117    2.320   2649.73    13.7373     0.0571     0.0241     4.8450
  118    2.340   2650.67    13.5314     0.0585     0.0250     4.8249
  119    2.360   2651.45    13.3218     0.0594     0.0252     4.8156
  120    2.380   2652.35    13.1176     0.0597     0.0257     4.8114
  121    2.400   2653.24    12.9305     0.0597     0.0260     4.8375
  122    2.420   2654.28    12.7921     0.0583     0.0257     4.8303
  123    2.440   2655.19    12.6902     0.0567     0.0262     4.8526
  124    2.460   2656.05    12.5497     0.0547     0.0247     4.8953
  125    2.480   2656.81    12.3807     0.0524     0.0252     4.9495
  126    2.500   2657.92    12.2076     0.0499     0.0261     4.9608
  127    2.520   2658.71    11.9106     0.0487     0.0268     4.9000
  128    2.540   2659.62    11.6149     0.0484     0.0268     4.9274
  129    2.560   2660.53    11.3417     0.0489     0.0268     4.9366
  130    2.580   2661.58    11.1138     0.0494     0.0278     4.9296
  131    2.600   2662.32    10.8762     0.0497     0.0280     4.9003
  132    2.620   2663.28    10.5420     0.0501     0.0281     4.8971
  133    2.640   2664.12    10.1209     0.0502     0.0280     4.9367
  134    2.660   2665.08     9.6812     0.0494     0.0281     4.9640
  135    2.680   2666.11     9.2498     0.0472     0.0291     4.9862
  136    2.700   2667.03     8.7126     0.0438     0.0288     4.9705
  137    2.720   2667.89     8.0681     0.0394     0.0293     4.9648
  138    2.740   2668.76     7.3160     0.0365     0.0293     4.9332
  139    2.760   2669.63     6.5924     0.0324     0.0302     4.9127
  140    2.780   2670.59     5.9705     0.0287     0.0309     4.9351
  141    2.800   2671.53     5.5062     0.0271     0.0279     4.9392
  142    2.820   2672.29     5.1522     0.0254     0.0248     4.9091
  143    2.840   2673.18     4.5817     0.0320     0.0303     4.8969
  144    2.860   2674.21     4.4434     0.0326     0.0267     4.8795
  145    2.880   2675.08     4.3044     0.0337     0.0156     4.8775
  146    2.900   2675.93     4.3038     0.0319     0.0214     4.8743
  147    2.920   2676.78     3.5960     0.0285     0.0188     4.9166
  148    2.940   2677.69     3.1742     0.0251     0.0170     4.8988
  149    2.960   2678.60     3.0300     0.0214     0.0300     4.8724
  150    2.980   2679.61     3.0693     0.0161     0.0341     4.9173
  151    3.000   2680.40     3.2672     0.0120     0.0375     4.9102
  152    3.020   2681.39     3.6381     0.0110     0.0227     4.9091
  153    3.040   2682.34     4.0258     0.0124     0.0103     4.8836
  154    3.060   2683.19     4.4440     0.0136     0.0224     4.8913
  155    3.080   2684.07     4.8975     0.0155     0.0262     4.9082
  156    3.100   2684.96     5.3708     0.0172     0.0210     4.9215
  157    3.120   2685.95     5.8677     0.0176     0.0252     4.9602
  158    3.140   2686.80     6.3771     0.0185     0.0264     4.9704
  159    3.160   2687.71     6.8570     0.0205     0.0266     4.9559
  160    3.180   2688.74     7.2434     0.0227     0.0222     4.9341
  161    3.200   2689.62     7.5435     0.0244     0.0179     4.9295
  162    3.220   2690.50     7.5798     0.0258     0.0170     4.9297
  163    3.240   2691.42     7.7158     0.0272     0.0143     4.9616
  164    3.260   2692.31     8.1481     0.0286     0.0145     4.9640
  165    3.280   2693.22     8.7095     0.0304     0.0269     4.9839
  166    3.300   2694.09     9.2364     0.0330     0.0327     4.9976
  167    3.320   2694.99     9.4224     0.0337     0.0334     5.0078
  168    3.340   2696.03     9.2803     0.0328     0.0357     5.0174
  169    3.360   2696.89     9.0126     0.0319     0.0371     5.0089
  170    3.380   2697.68     8.6868     0.0327     0.0378     5.0170
  171    3.400   2698.59     8.3561     0.0377     0.0371     4.9834
  172    3.420   2699.50     7.9975     0.0386     0.0363     4.9678
  173    3.440   2700.51     7.7130     0.0425     0.0381     4.9494
  174    3.460   2701.29     7.5761     0.0489     0.0375     4.9375
  175    3.480   2702.23     7.7228     0.0543     0.0382     4.9378
  176    3.500   2703.14     8.0672     0.0650     0.0424     4.9737
  177    3.520   2704.16     8.5825     0.0804     0.0354     4.9763
  178    3.540   2705.09     9.5732     0.0871     0.0360     5.0127
  179    3.560   2705.93    10.8942     0.0934     0.0339     5.0447
  180    3.580   2706.83    13.1191     0.0977     0.0423     5.0069
  181    3.600   2707.73    15.3710     0.1021     0.0425     4.9960
  182    3.620   2708.61    16.9613     0.1067     0.0219     4.9560
  183    3.640   2709.68    17.9087     0.1088     0.0174     4.9666
  184    3.660   2710.60    18.8151     0.1086     0.0337     4.9570
  185    3.680   2711.39    19.8584     0.1083     0.0387     4.9472
  186    3.700   2712.34    20.8058     0.1108     0.0388     4.9437
  187    3.720   2713.25    21.6350     0.1118     0.0394     4.9525
  188    3.740   2714.16    22.5258     0.1149     0.0396     4.9906
  189    3.760   2715.04    23.5910     0.1184     0.0397     4.9842
  190    3.780   2715.94    25.2250     0.1219     0.0406     4.9680
  191    3.800   2716.94    27.8034     0.1288     0.0404     4.9837
  192    3.820   2717.79    30.6120     0.1361     0.0388     5.0252
  193    3.840   2718.63    32.3277     0.1463     0.0382     5.0066
  194    3.860   2719.53    33.6677     0.1598     0.0381     5.0015
  195    3.880   2720.63    34.2935     0.1695     0.0329     4.9938
  196    3.900   2721.43    34.0722     0.1752     0.0323     4.9975
  197    3.920   2722.26    33.4357     0.1754     0.0339     5.0059
  198    3.940   2723.26    32.7505     0.1735     0.0286     5.0197
  199    3.960   2724.23    30.7090     0.1716     0.0306     4.9936
  200    3.980   2725.21    29.1758     0.1694     0.0295     4.9860
  201    4.000   2726.08    27.9151     0.1679     0.0294     5.0236
  202    4.020   2726.98    27.2288     0.2142     0.0332     5.0412
  203    4.040   2727.92    27.7999     0.2422     0.0264     5.1158
  204    4.060   2728.78    28.7571     0.2273    -0.0002     5.1580
  205    4.080   2729.61    29.8598     0.2153     0.0172     5.1963
  206    4.100   2730.60    31.7468     0.2085    -0.0708     5.2914
  207    4.120   2731.58    29.0750     0.2021    -0.1390     5.2399
  208    4.140   2732.48    28.5614     0.1974    -0.1034     5.2447
  209    4.160   2733.38    28.4687     0.1890    -0.0263     5.2313
  210    4.180   2734.46    28.3469     0.1629    -0.0031     5.2414
  211    4.200   2735.38    28.2566     0.1562     0.0118     5.2128
  212    4.220   2736.24    28.2995     0.1522     0.0225     5.2418
  213    4.240   2737.19    28.6468     0.1492     0.0319     5.1861
  214    4.260   2738.12    29.1530     0.1477     0.0393     5.1533
  215    4.280   2739.08    29.6591     0.1470     0.0435     5.1738
  216    4.300   2739.91    30.1919     0.1483     0.0461     5.1570
  217    4.320   2740.79    30.7511     0.1498     0.0454     5.1444
  218    4.340   2741.72    30.9256     0.1505     0.0455     5.1420
  219    4.360   2742.63    30.5505     0.1497     0.0451     5.1229
  220    4.380   2743.46    29.9176     0.1499     0.0450     5.1057
  221    4.400   2744.47    29.4908     0.1490     0.0454     5.1152
  222    4.420   2745.41    29.4005     0.1476     0.0470     5.1388
  223    4.440   2746.26    29.4204     0.1447     0.0471     5.1215
  224    4.460   2747.14    29.4044     0.1431     0.0473     5.1084
  225    4.480   2748.14    29.4732     0.1432     0.0473     5.0998
  226    4.500   2749.05    29.4949     0.1437     0.0483     5.1039
  227    4.520   2749.96    29.5719     0.1447     0.0485     5.0837
  228    4.540   2750.85    29.6890     0.1440     0.0483     5.1094
  229    4.560   2751.98    29.6197     0.1437     0.0480     5.1012
  230    4.580   2752.70    29.4601     0.1453     0.0491     5.1070
  231    4.600   2753.65    29.2778     0.1454     0.0489     5.0964
  232    4.620   2754.56    29.2598     0.1459     0.0492     5.0876
  233    4.640   2755.62    29.2253     0.1457     0.0494     5.0953
  234    4.660   2756.46    29.2758     0.1455     0.0502     5.0993
  235    4.680   2757.32    29.3961     0.1441     0.0513     5.0897
  236    4.700   2758.36    29.6210     0.1429     0.0498     5.1016
  237    4.720   2759.32    29.6933     0.1419     0.0502     5.0613
  238    4.740   2760.20    29.7742     0.1399     0.0512     5.0757
  239    4.760   2761.04    29.7986     0.1394     0.0521     5.0908
  240    4.780   2762.01    29.9245     0.1390     0.0499     5.0230
  241    4.800   2763.02    29.9911     0.1388     0.0506     5.0442
  242    4.820   2763.92    30.0336     0.1390     0.0526     5.0433
  243    4.840   2764.75    30.0526     0.1389     0.0519     5.0219
  244    4.860   2765.72    30.1032     0.1409     0.0531     5.0140
  245    4.880   2766.59    30.1654     0.1413     0.0520     5.0269
  246    4.900   2767.55    30.2807     0.1415     0.0528     5.0110
  247    4.920   2768.44    30.4291     0.1411     0.0540     5.0107
  248    4.940   2769.39    30.6382     0.1407     0.0521     5.0143
  249    4.960   2770.27    30.7305     0.1397     0.0529     4.9947
  250    4.980   2771.10    30.8734     0.1372     0.0534     4.9838
  251    5.000   2772.12    31.1390     0.1363     0.0540     4.9862
  252    5.020   2773.09    31.5463     0.1359     0.0539     4.9991
  253    5.040   2773.97    31.9560     0.1367     0.0548     4.9841
  254    5.060   2774.80    32.4028     0.1402     0.0562     4.9634
  255    5.080   2775.78    33.0491     0.1457     0.0548     4.9534
  256    5.100   2776.76    33.5819     0.1494     0.0546     4.9446
  257    5.120   2777.69    33.6445     0.1511     0.0547     4.9551
  258    5.140   2778.52    33.6222     0.1540     0.0548     4.9489
  259    5.160   2779.56    33.3784     0.1580     0.0547     4.9138
  260    5.180   2780.58    33.2531     0.1609     0.0560     4.9177
  261    5.200   2781.38    33.4002     0.1607     0.0553     4.9064
  262    5.220   2782.20    33.5306     0.1609     0.0553     4.9082
  263    5.240   2783.20    33.4915     0.1624     0.0577     4.9064
  264    5.260   2784.11    33.4464     0.1637     0.0581     4.9039
  265    5.280   2785.05    33.4513     0.1644     0.0568     4.8943
  266    5.300   2785.82    33.5895     0.1662     0.0572     4.9106
  267    5.320   2786.87    33.9703     0.1672     0.0575     4.8832
  268    5.340   2787.90    34.1018     0.1678     0.0572     4.8772
  269    5.360   2788.71    34.1165     0.1693     0.0571     4.8797
  270    5.380   2789.57    34.3240     0.1702     0.0579     4.8448
  271    5.400   2790.46    34.5957     0.1695     0.0572     4.8413
  272    5.420   2791.39    34.5835     0.1689     0.0569     4.8479
  273    5.440   2792.30    34.6695     0.1692     0.0572     4.8787
  274    5.460   2793.13    34.9797     0.1702     0.0573     4.8407
  275    5.480   2794.22    35.2423     0.1683     0.0578     4.8539
  276    5.500   2795.13    35.3120     0.1672     0.0586     4.8628
  277    5.520   2795.95    35.4173     0.1664     0.0583     4.8467
  278    5.540   2796.98    35.8406     0.1679     0.0580     4.8343
  279    5.560   2797.93    36.5793     0.1669     0.0583     4.8388
  280    5.580   2798.89    37.2651     0.1661     0.0597     4.8409
  281    5.600   2799.75    37.6814     0.1654     0.0604     4.8521
  282    5.620   2800.76    37.9782     0.1681     0.0583     4.8463
  283    5.640   2801.68    38.3060     0.1712     0.0533     4.8438
  284    5.660   2802.66    38.4476     0.1719     0.0327     4.8514
  285    5.680   2803.53    38.5292     0.1714     0.0277     4.8337
  286    5.700   2804.65    38.6123     0.1728     0.0350     4.8473
  287    5.720   2805.52    38.3519     0.1778     0.0416     4.8405
  288    5.740   2806.44    38.1573     0.1807     0.0469     4.8313
  289    5.760   2807.41    38.0898     0.1836     0.0500     4.8735
  290    5.780   2808.33    38.0650     0.1798     0.0529     4.8506
  291    5.800   2809.15    37.8135     0.1762     0.0537     4.8284
  292    5.820   2810.03    37.5355     0.1753     0.0502     4.8400
  293    5.840   2810.96    37.5162     0.1747     0.0497     4.8408
  294    5.860   2811.89    38.4140     0.1726     0.0511     4.8406
  295    5.880   2812.80    39.6136     0.1699     0.0517     4.8502
  296    5.900   2813.67    40.2068     0.1708     0.0526     4.8614
  297    5.920   2814.58    40.2193     0.1766     0.0520     4.8061
  298    5.940   2815.57    40.1726     0.1822     0.0475     4.8261
  299    5.960   2816.45    40.0080     0.1891     0.0327     4.8210
  300    5.980   2817.35    39.8507     0.1924     0.0348     4.8178
  301    6.000   2818.31    39.6714     0.1932     0.0414     4.8231
  302    6.020   2819.22    39.6154     0.1930     0.0462     4.8403
  303    6.040   2820.13    39.7297     0.1913     0.0541     4.8283
  304    6.060   2821.03    40.1310     0.1877     0.0588     4.8520
  305    6.080   2822.07    40.9844     0.1857     0.0620     4.8359
  306    6.100   2823.00    42.0456     0.1858     0.0635     4.8529
  307    6.120   2823.90    42.9538     0.1860     0.0610     4.8415
  308    6.140   2824.88    43.0377     0.1858     0.0610     4.8413
  309    6.160   2825.88    42.4901     0.1866     0.0611     4.8482
  310    6.180   2826.80    42.0070     0.1920     0.0586     4.8449
  311    6.200   2827.69    41.5836     0.1972     0.0590     4.8655
  312    6.220   2828.64    41.1294     0.2009     0.0494     4.8267
  313    6.240   2829.56    40.6188     0.2029     0.0511     4.8342
  314    6.260   2830.56    40.2337     0.2005     0.0522     4.8507
  315    6.280   2831.34    39.8102     0.1999     0.0584     4.8267
  316    6.300   2832.25    39.3573     0.1999     0.0588     4.8103
  317    6.320   2833.19    39.1465     0.2011     0.0589     4.8134
  318    6.340   2834.17    39.1995     0.1996     0.0601     4.8024
  319    6.360   2835.00    39.0465     0.1973     0.0610     4.8075
  320    6.380   2835.92    38.6318     0.1977     0.0618     4.8183
  321    6.400   2836.82    38.2035     0.2002     0.0623     4.8128
  322    6.420   2837.80    38.0206     0.2048     0.0635     4.8020
  323    6.440   2838.65    37.7937     0.2093     0.0631     4.8117
  324    6.460   2839.61    37.4897     0.2141     0.0648     4.8241
  325    6.480   2840.52    37.0557     0.2149     0.0662     4.8281
  326    6.500   2841.46    36.6552     0.2151     0.0657     4.8219
  327    6.520   2842.41    36.1251     0.2116     0.0650     4.8319
  328    6.540   2843.41    35.4154     0.2083     0.0652     4.8075
  329    6.560   2844.33    34.7792     0.2044     0.0645     4.8177
  330    6.580   2845.16    34.4339     0.1977     0.0650     4.8170
  331    6.600   2846.04    34.0621     0.1927     0.0648     4.8297
  332    6.620   2847.05    33.7083     0.1897     0.0651     4.8225
  333    6.640   2848.00    33.2622     0.1879     0.0648     4.8113
  334    6.660   2848.85    32.8674     0.1856     0.0650     4.7840
  335    6.680   2849.81    32.4371     0.1864     0.0645     4.8163
  336    6.700   2850.85    31.7969     0.1880     0.0652     4.7965
  337    6.720   2851.74    31.3452     0.1877     0.0653     4.7943
  338    6.740   2852.51    30.9621     0.1875     0.0664     4.7902
  339    6.760   2853.52    30.4682     0.1860     0.0656     4.7896
  340    6.780   2854.50    29.6880     0.1851     0.0656     4.7936
  341    6.800   2855.34    29.1000     0.1820     0.0665     4.7957
  342    6.820   2856.23    28.6906     0.1784     0.0664     4.7769
  343    6.840   2857.23    28.4737     0.1743     0.0664     4.7685
  344    6.860   2858.09    28.1323     0.1717     0.0691     4.7672
  345    6.880   2858.96    27.7692     0.1699     0.0642     4.7727
  346    6.900   2859.91    27.2232     0.1688     0.0569     4.7567
  347    6.920   2860.82    26.6049     0.1661     0.0539     4.7849
  348    6.940   2861.72    25.9520     0.1660     0.0553     4.7926
  349    6.960   2862.56    25.2369     0.1671     0.0588     4.7557
  350    6.980   2863.46    24.4422     0.1676     0.0598     4.7610
  351    7.000   2864.45    23.4695     0.1672     0.0585     4.7514
  352    7.020   2865.38    22.3371     0.1654     0.0573     4.7617
  353    7.040   2866.30    20.9483     0.1689     0.0538     4.7401
  354    7.060   2867.24    19.0775     0.1766     0.0498     4.7589
  355    7.080   2868.15    16.8367     0.1802     0.0456     4.7759
  356    7.100   2868.98    14.6546     0.1903     0.0454     4.7766
  357    7.120   2869.86    12.7419     0.1957     0.0542     4.7606
  358    7.140   2870.79    11.5961     0.1987     0.0809     4.7715
  359    7.160   2871.70    11.2244     0.1977     0.0817     4.7471
  360    7.180   2872.61    10.6990     0.2020     0.0793     4.7517
  361    7.200   2873.52    10.4628     0.2070     0.0604     4.7090
  362    7.220   2874.46    10.0837     0.1983     0.0376     4.6954
  363    7.240   2875.34     9.8683     0.1717     0.0225     4.6847
  364    7.260   2876.20    11.0016     0.1481     0.0160     4.6820
  365    7.280   2877.12    12.8462     0.1334     0.0382     4.6666
  366    7.300   2878.07    14.8510     0.1267    -0.0055     4.6863
  367    7.320   2878.96    15.1225     0.1281    -0.0283     4.7021
  368    7.340   2879.80    14.1619     0.1277    -0.0287     4.7175
  369    7.360   2880.68    12.6097     0.1268    -0.0271     4.6916
  370    7.380   2881.67    10.6626     0.1347    -0.0284     4.6978
  371    7.400   2882.54     9.3959     0.1452    -0.0232     4.7256
  372    7.420   2883.38     8.5797     0.1628    -0.0147     4.7029
  373    7.440   2884.36     7.9333     0.1783     0.0010     4.7192
  374    7.460   2885.27     7.5423     0.1838     0.0144     4.7307
  375    7.480   2886.13     7.1538     0.1944     0.0404     4.7680
  376    7.500   2887.04     6.8310     0.1813     0.0475     4.7305
  377    7.520   2887.99     6.7512     0.1582     0.0451     4.7330
  378    7.540   2888.94     7.0280     0.1371     0.0622     4.7460
  379    7.560   2889.82     8.2750     0.1217     0.1585     4.7760
  380    7.580   2890.69    11.7470     0.1148     0.1421     4.7725
  381    7.600   2891.64    16.8013     0.1146     0.0412     4.7588
  382    7.620   2892.55    19.3780     0.1135     0.0444     4.7632
  383    7.640   2893.46    20.8501     0.1182     0.0603     4.7558
  384    7.660   2894.40    21.7469     0.1274     0.0667     4.7255
  385    7.680   2895.35    22.4644     0.1366     0.0689     4.7434
  386    7.700   2896.27    23.1367     0.1447     0.0720     4.7714
  387    7.720   2897.19    23.6776     0.1515     0.0821     4.7525
  388    7.740   2898.10    23.9877     0.1565     0.0841     4.7354
  389    7.760   2899.01    24.2056     0.1613     0.0829     4.7590
  390    7.780   2899.90    24.3274     0.1673     0.0835     4.7603
  391    7.800   2900.79    24.2553     0.1656     0.0829     4.7534
  392    7.820   2901.71    24.0038     0.1691     0.0810     4.7443
  393    7.840   2902.65    23.5445     0.1699     0.0794     4.7553
  394    7.860   2903.52    23.0062     0.1697     0.0762     4.7643
  395    7.880   2904.39    22.1723     0.1703     0.0763     4.7365
  396    7.900   2905.31    21.1442     0.1743     0.0767     4.7356
  397    7.920   2906.25    19.9241     0.1745     0.0732     4.7055
  398    7.940   2907.16    18.5223     0.1760     0.0719     4.6929
  399    7.960   2908.07    16.9632     0.1759     0.0672     4.6822
  400    7.980   2908.98    14.7913     0.1784     0.0569     4.6965
  401    8.000   2909.89    12.1746     0.1854     0.0444     4.7210
  402    8.020   2910.79     9.6007     0.1932     0.0357     4.7162
  403    8.040   2911.72     7.1169     0.2035     0.0270     4.6954
  404    8.060   2912.67     5.2332     0.2141     0.0265     4.6990
  405    8.080   2913.58     4.0931     0.2211     0.0327     4.7226
  406    8.100   2914.44     3.4678     0.2146     0.0459     4.7270
  407    8.120   2915.36     3.0649     0.1973     0.0680     4.7282
  408    8.140   2916.27     2.7222     0.1749     0.0863     4.7435
  409    8.160   2917.18     2.3732     0.1510     0.0974     4.7612
  410    8.180   2918.09     2.0897     0.1308     0.1250     4.7260
  411    8.200   2919.04     1.9413     0.1109     0.1802     4.7541
  412    8.220   2919.95     1.8107     0.0946     0.2246     4.7374
  413    8.240   2920.83     1.7673     0.0894     0.2265     4.7372
  414    8.260   2921.69     1.7970     0.0936     0.2157     4.7501
  415    8.280   2922.64     1.8307     0.0994     0.2050     4.7309
  416    8.300   2923.55     1.8663     0.1045     0.1920     4.7319
  417    8.320   2924.43     1.8723     0.1069     0.1855     4.7246
  418    8.340   2925.32     1.8665     0.1105     0.1773     4.7349
  419    8.360   2926.25     1.8726     0.1123     0.1628     4.7559
  420    8.380   2927.18     1.8476     0.1125     0.1620     4.7449
  421    8.400   2928.10     1.8521     0.1128     0.1553     4.7679
  422    8.420   2928.98     1.8486     0.1119     0.1474     4.7515
  423    8.440   2929.88     1.8646     0.1112     0.1469     4.7247
  424    8.460   2930.83     1.8941     0.1115     0.1399     4.7367
  425    8.480   2931.70     1.9197     0.1131     0.1343     4.7728
  426    8.500   2932.61     1.9173     0.1156     0.1334     4.7333
  427    8.520   2933.56     1.9398     0.1193     0.1251     4.7479
  428    8.540   2934.47     1.9648     0.1217     0.1094     4.7542
  429    8.560   2935.38     2.0026     0.1248     0.1002     4.7479
  430    8.580   2936.28     2.0087     0.1279     0.0952     4.7461
  431    8.600   2937.20     2.0198     0.1312     0.0874     4.7268
  432    8.620   2938.07     2.0368     0.1308     0.0887     4.7135
  433    8.640   2939.02     2.0253     0.1318     0.0848     4.7558
  434    8.660   2939.92     2.0365     0.1318     0.0820     4.7375
  435    8.680   2940.85     2.0385     0.1318     0.0802     4.7606
  436    8.700   2941.76     2.0336     0.1320     0.0749     4.7512
  437    8.720   2942.67     2.0238     0.1330     0.0686     4.7494
  438    8.740   2943.58     2.0201     0.1323     0.0615     4.7396
  439    8.760   2944.46     2.0012     0.1299     0.0581     4.7651
  440    8.780   2945.38     1.9997     0.1271     0.0553     4.7509
  441    8.800   2946.26     1.9714     0.1282     0.0559     4.7582
  442    8.820   2947.18     1.9533     0.1297     0.0577     4.7593
  443    8.840   2948.09     1.9682     0.1281     0.0561     4.7331
  444    8.860   2948.96     2.0065     0.1286     0.0503     4.7675
  445    8.880   2949.86     2.0204     0.1325     0.0475     4.7556
  446    8.900   2950.78     2.0213     0.1352     0.0500     4.7591
  447    8.920   2951.68     2.0064     0.1346     0.0448     4.7336
  448    8.940   2952.59     2.0419     0.1324     0.0400     4.7648
  449    8.960   2953.47     2.0635     0.1334     0.0406     4.7746
  450    8.980   2954.44     2.0273     0.1345     0.0425     4.7691
  451    9.000   2955.37     2.0393     0.1321     0.0474     4.7651
  452    9.020   2956.28     2.0518     0.1318     0.0452     4.7807
  453    9.040   2957.19     2.1081     0.1347     0.0400     4.7842
  454    9.060   2958.14     2.1605     0.1384     0.0445     4.7643
  455    9.080   2959.02     2.1880     0.1421     0.0431     4.7969
  456    9.100   2959.90     2.2199     0.1419     0.0390     4.7941
  457    9.120   2960.80     2.2272     0.1427     0.0358     4.8198
  458    9.140   2961.79     2.2216     0.1437     0.0359     4.8008
  459    9.160   2962.65     2.2169     0.1427     0.0385     4.8026
  460    9.180   2963.60     2.2276     0.1403     0.0368     4.8148
  461    9.200   2964.56     2.2473     0.1416     0.0371     4.8196
  462    9.220   2965.44     2.2326     0.1408     0.0382     4.8170
  463    9.240   2966.34     2.2534     0.1440     0.0372     4.8190
  464    9.260   2967.25     2.2868     0.1445     0.0333     4.8224
  465    9.280   2968.16     2.3118     0.1453     0.0335     4.8155
  466    9.300   2969.03     2.3523     0.1410     0.0334     4.8113
  467    9.320   2969.91     2.3786     0.1431     0.0359     4.8076
  468    9.340   2970.80     2.4049     0.1455     0.0374     4.7929
  469    9.360   2971.80     2.4060     0.1490     0.0470     4.8058
  470    9.380   2972.70     2.3491     0.1480     0.0387     4.8153
  471    9.400   2973.54     2.4425     0.1444     0.0376     4.8328
  472    9.420   2974.44     2.4341     0.1451     0.0415     4.8098
  473    9.440   2975.35     2.3535     0.1436     0.0454     4.8092
  474    9.460   2976.28     2.2615     0.1378     0.0529     4.8418
  475    9.480   2977.22     2.1670     0.1335     0.0514     4.8346
  476    9.500   2978.13     2.2203     0.1346     0.0482     4.8510
  477    9.520   2979.08     2.2055     0.1287     0.0516     4.8078
  478    9.540   2980.00     2.1859     0.1289     0.0475     4.7918
  479    9.560   2980.88     2.2029     0.1269     0.0468     4.8288
  480    9.580   2981.74     2.2274     0.1287     0.0501     4.7794
  481    9.600   2982.68     2.2466     0.1322     0.0526     4.7946
  482    9.620   2983.55     2.2526     0.1321     0.0495     4.7840
  483    9.640   2984.46     2.2923     0.1311     0.0496     4.7888
  484    9.660   2985.39     2.3236     0.1305     0.0490     4.7632
  485    9.680   2986.32     2.3597     0.1284     0.0548     4.7851
  486    9.700   2987.27     2.3113     0.1280     0.0570     4.7801
  487    9.720   2988.14     2.3077     0.1243     0.0615     4.7832
  488    9.740   2989.01     2.3008     0.1200     0.0666     4.8142
  489    9.760   2989.92     2.2505     0.1181     0.0709     4.8039
  490    9.780   2990.85     2.2900     0.1174     0.0700     4.8126
  491    9.800   2991.74     2.3760     0.1171     0.0728     4.8064
  492    9.820   2992.65     2.4185     0.1133     0.0729     4.8078
  493    9.840   2993.57     2.4751     0.1144     0.0748     4.7876
  494    9.860   2994.44     2.5122     0.1162     0.0763     4.7963
  495    9.880   2995.34     2.5197     0.1143     0.0804     4.7661
  496    9.900   2996.25     2.4495     0.1123     0.0798     4.7790
  497    9.920   2997.20     2.4721     0.1107     0.0783     4.7472
  498    9.940   2998.11     2.5717     0.1100     0.0852     4.7445
  499    9.960   2998.98     2.5742     0.1119     0.0899     4.7397
  500    9.980   2999.98     2.6223     0.1122     0.0926     4.7677
  501   10.000   3000.87     2.6784     0.1111     0.0957     4.7367
  502   10.020   3001.80     2.6769     0.1116     0.0969     4.7740
  503   10.040   3002.71     2.7538     0.1117     0.1028     4.7747
  504   10.060   3003.62     2.7819     0.1106     0.1074     4.7973
  505   10.080   3004.52     2.7381     0.1121     0.1097     4.7994
  506   10.100   3005.40     2.7130     0.1119     0.1107     4.7968
  507   10.120   3006.35     2.6743     0.1113     0.1168     4.8290
  508   10.140   3007.26     2.6023     0.1106     0.1171     4.8288
  509   10.160   3008.18     2.6158     0.1111     0.1204     4.8413
  510   10.180   3009.09     2.5968     0.1091     0.1247     4.8677
  511   10.200   3010.03     2.5844     0.1062     0.1267     4.8187
  512   10.220   3010.93     2.5824     0.1040     0.1314     4.8200
  513   10.240   3011.80     2.5721     0.1019     0.1354     4.7957
  514   10.260   3012.69     2.5454     0.1010     0.1389     4.7862
  515   10.280   3013.59     2.4789     0.1013     0.1387     4.8108
  516   10.300   3014.55     2.4503     0.1015     0.1387     4.7776
  517   10.320   3015.41     2.4683     0.1030     0.1403     4.7905
  518   10.340   3016.34     2.4513     0.1049     0.1414     4.7941
  519   10.360   3017.28     2.4038     0.1068     0.1382     4.7838
  520   10.380   3018.15     2.4544     0.1071     0.1427     4.7850
  521   10.400   3019.06     2.4774     0.1088     0.1450     4.7731
  522   10.420   3019.97     2.5094     0.1101     0.1468     4.7931
  523   10.440   3020.88     2.4847     0.1111     0.1464     4.7980
  524   10.460   3021.79     2.4850     0.1147     0.1461     4.7922
  525   10.480   3022.70     2.5266     0.1143     0.1497     4.7876
  526   10.500   3023.61     2.5716     0.1138     0.1522     4.8121
  527   10.520   3024.56     2.6163     0.1152     0.1548     4.8181
  528   10.540   3025.44     2.6455     0.1170     0.1587     4.7949
  529   10.560   3026.34     2.6223     0.1185     0.1638     4.7910
  530   10.580   3027.29     2.5903     0.1189     0.1637     4.7728
  531   10.600   3028.16     2.6248     0.1169     0.1678     4.7711
  532   10.620   3029.11     2.6389     0.1159     0.1726     4.7749
  533   10.640   3029.98     2.6430     0.1143     0.1790     4.7815
  534   10.660   3030.98     2.6300     0.1100     0.1863     4.7995
  535   10.680   3031.89     2.6178     0.1047     0.1901     4.8088
  536   10.700   3032.77     2.5675     0.1017     0.1929     4.8188
  537   10.720   3033.67     2.4725     0.0988     0.1962     4.8310
  538   10.740   3034.58     2.4511     0.0975     0.1950     4.8145
  539   10.760   3035.47     2.4791     0.0970     0.1976     4.8246
  540   10.780   3036.40     2.5010     0.0980     0.2026     4.8344
  541   10.800   3037.26     2.5690     0.0993     0.2076     4.8189
  542   10.820   3038.18     2.6351     0.0994     0.2120     4.8360
  543   10.840   3039.09     2.6578     0.0993     0.2177     4.8347
  544   10.860   3039.95     2.6809     0.0983     0.2224     4.8528
  545   10.880   3040.91     2.6743     0.0987     0.2267     4.8295
  546   10.900   3041.82     2.6723     0.0972     0.2323     4.8537
  547   10.920   3042.68     2.6934     0.0944     0.2390     4.8715
  548   10.940   3043.55     2.6426     0.0956     0.2421     4.8872
  549   10.960   3044.55     2.6122     0.0939     0.2460     4.8633
  550   10.980   3045.43     2.6033     0.0942     0.2527     4.8401
  551   11.000   3046.37     2.6410     0.0963     0.2567     4.8361
  552   11.020   3047.28     2.7512     0.0981     0.2617     4.8603
  553   11.040   3048.24     2.7233     0.0976     0.2651     4.8356
  554   11.060   3049.14     2.7036     0.0974     0.2656     4.8492
  555   11.080   3049.98     2.6826     0.0955     0.2716     4.8411
  556   11.100   3050.88     2.6518     0.0957     0.2785     4.8446
  557   11.120   3051.83     2.6634     0.0949     0.2841     4.8729
  558   11.140   3052.70     2.6449     0.0932     0.2876     4.8975
  559   11.160   3053.65     2.6202     0.0928     0.2897     4.8918
  560   11.180   3054.56     2.5980     0.0934     0.2926     4.8802
  561   11.200   3055.49     2.5647     0.0947     0.2947     4.9229
  562   11.220   3056.39     2.5642     0.0956     0.2969     4.8900
  563   11.240   3057.28     2.5672     0.0953     0.3006     4.8990
  564   11.260   3058.17     2.5908     0.0974     0.3035     4.9236
  565   11.280   3059.08     2.6104     0.1006     0.3097     4.8953
  566   11.300   3059.94     2.5880     0.1023     0.3171     4.8795
  567   11.320   3060.87     2.5703     0.1032     0.3162     4.8980
  568   11.340   3061.80     2.6127     0.1040     0.3157     4.8904
  569   11.360   3062.67     2.6610     0.1045     0.3237     4.8752
  570   11.380   3063.54     2.6930     0.1058     0.3325     4.8682
  571   11.400   3064.49     2.7112     0.1062     0.3381     4.8464
  572   11.420   3065.38     2.6661     0.1075     0.3384     4.8544
  573   11.440   3066.27     2.6096     0.1065     0.3398     4.8617
  574   11.460   3067.21     2.5855     0.1069     0.3420     4.8516
  575   11.480   3068.09     2.5621     0.1059     0.3406     4.8457
  576   11.500   3069.04     2.5563     0.1047     0.3428     4.8307
  577   11.520   3069.99     2.4923     0.1061     0.3461     4.8480
  578   11.540   3070.89     2.4579     0.1100     0.3477     4.8466
  579   11.560   3071.77     2.4475     0.1103     0.3457     4.8333
  580   11.580   3072.68     2.4675     0.1113     0.3416     4.8418
  581   11.600   3073.60     2.5168     0.1126     0.3425     4.8416
  582   11.620   3074.46     2.6293     0.1117     0.3520     4.8497
  583   11.640   3075.40     2.6059     0.1109     0.3494     4.8457
  584   11.660   3076.35     2.6314     0.1124     0.3482     4.8506
  585   11.680   3077.28     2.6264     0.1141     0.3518     4.8584
  586   11.700   3078.15     2.6272     0.1142     0.3556     4.8757
  587   11.720   3079.06     2.6193     0.1145     0.3481     4.9177
  588   11.740   3080.00     2.7126     0.1152     0.3439     4.8999
  589   11.760   3080.88     2.6940     0.1176     0.3508     4.9072
  590   11.780   3081.76     2.6299     0.1178     0.3442     4.8984
  591   11.800   3082.70     2.6360     0.1185     0.3381     4.8994
  592   11.820   3083.61     2.6811     0.1169     0.3350     4.9070
  593   11.840   3084.49     2.7138     0.1162     0.3402     4.8861
  594   11.860   3085.39     2.6843     0.1182     0.3464     4.8657
  595   11.880   3086.30     2.6451     0.1195     0.3506     4.8720
  596   11.900   3087.21     2.6426     0.1181     0.3549     4.8535
  597   11.920   3088.12     2.6346     0.1179     0.3599     4.8471
  598   11.940   3089.00     2.6635     0.1158     0.3668     4.8391
  599   11.960   3089.91     2.7301     0.1118     0.3785     4.8108
  600   11.980   3090.85     2.7406     0.1098     0.3877     4.8035
  601   12.000   3091.72     2.7371     0.1088     0.3972     4.7945
  602   12.020   3092.63     2.7127     0.1047     0.4044     4.7864
  603   12.040   3093.67     2.7528     0.1024     0.4088     4.7647
  604   12.060   3094.54     2.8245     0.0996     0.4147     4.7638
  605   12.080   3095.38     2.8997     0.0976     0.4276     4.7608
  606   12.100   3096.28     2.9145     0.0997     0.4392     4.7665
  607   12.120   3097.23     2.9129     0.0995     0.4465     4.7433
  608   12.140   3098.13     2.8822     0.0981     0.4523     4.7695
  609   12.160   3099.04     2.8604     0.0983     0.4540     4.7667
  610   12.180   3100.03     2.9035     0.0982     0.4615     4.7832
  611   12.200   3100.96     2.9204     0.0986     0.4750     4.7523
  612   12.220   3101.82     2.8927     0.0997     0.4776     4.7327
  613   12.240   3102.69     2.9493     0.1004     0.4910     4.7513
  614   12.260   3103.60     2.9846     0.0997     0.5019     4.7488
  615   12.280   3104.54     2.9537     0.0998     0.5086     4.7598
  616   12.300   3105.42     2.9512     0.1023     0.5150     4.7628
  617   12.320   3106.30     2.9675     0.1038     0.5257     4.7806
  618   12.340   3107.24     2.9224     0.0995     0.5318     4.7670
  619   12.360   3108.19     2.9126     0.0964     0.5401     4.7688
  620   12.380   3109.02     2.9234     0.0970     0.5515     4.7901
  621   12.400   3109.95     3.0090     0.0971     0.5789     4.8000
  622   12.420   3110.86     2.9615     0.0967     0.5943     4.8073
  623   12.440   3111.76     2.9125     0.0961     0.5907     4.8082
  624   12.460   3112.66     2.9750     0.0961     0.6058     4.8077
  625   12.480   3113.57     3.0032     0.0950     0.6224     4.8140
  626   12.500   3114.51     3.0183     0.0959     0.6380     4.8337
  627   12.520   3115.48     3.1065     0.0968     0.6618     4.8397
  628   12.540   3116.36     3.1298     0.0974     0.6831     4.8106
  629   12.560   3117.28     3.0868     0.0979     0.6923     4.7883
  630   12.580   3118.16     3.0943     0.0990     0.7027     4.7885
  631   12.600   3119.07     3.1515     0.0986     0.7173     4.8145
  632   12.620   3119.98     3.1363     0.1003     0.7292     4.8252
  633   12.640   3120.90     3.1014     0.0977     0.7371     4.8306
  634   12.660   3121.82     3.1378     0.0966     0.7614     4.8299
  635   12.680   3122.76     3.2276     0.0984     0.7834     4.8525
  636   12.700   3123.68     3.2241     0.0987     0.8015     4.8300
  637   12.720   3124.63     3.1453     0.0981     0.8097     4.8456
  638   12.740   3125.48     3.0995     0.0972     0.8044     4.8309
  639   12.760   3126.36     3.1573     0.0942     0.8186     4.8618
  640   12.780   3127.28     3.1689     0.0931     0.8380     4.8608
  641   12.800   3128.22     3.1445     0.0930     0.8511     4.8481
  642   12.820   3129.05     3.0826     0.0944     0.8607     4.8626
  643   12.840   3129.96     2.9877     0.0938     0.8601     4.8597
  644   12.860   3130.91     2.9282     0.0920     0.8513     4.8611
  645   12.880   3131.82     2.9948     0.0917     0.8604     4.8584
  646   12.900   3132.72     3.0755     0.0928     0.8779     4.8708
  647   12.920   3133.60     3.0415     0.0936     0.8880     4.8773
  648   12.940   3134.55     2.9649     0.0916     0.8908     4.8988
  649   12.960   3135.51     2.9150     0.0901     0.8911     4.8737
  650   12.980   3136.37     2.8906     0.0910     0.8962     4.8762
  651   13.000   3137.27     2.8597     0.0940     0.9074     4.9012
  652   13.020   3138.25     2.7449     0.0936     0.8992     4.8932
  653   13.040   3139.15     2.7282     0.0923     0.8833     4.8976
  654   13.060   3140.03     2.8230     0.0926     0.8904     4.9480
  655   13.080   3140.97     2.9154     0.0924     0.9118     4.9268
  656   13.100   3141.86     2.8834     0.0939     0.9349     4.9121
  657   13.120   3142.79     2.9351     0.0938     0.9503     4.9038
  658   13.140   3143.70     3.0094     0.0951     0.9608     4.9124
  659   13.160   3144.61     2.9385     0.0985     0.9550     4.9082
  660   13.180   3145.57     2.8311     0.0996     0.9386     4.9359
  661   13.200   3146.48     2.7778     0.0990     0.9293     4.9406
  662   13.220   3147.37     2.7861     0.0990     0.9268     4.9798
  663   13.240   3148.30     2.8685     0.0990     0.9459     4.9584
  664   13.260   3149.17     2.9619     0.0992     0.9742     4.9626
  665   13.280   3150.13     2.9982     0.0974     0.9879     4.9172
  666   13.300   3150.96     2.9195     0.0980     0.9727     4.9332
  667   13.320   3151.93     2.8765     0.0998     0.9696     4.9107
  668   13.340   3152.84     2.8493     0.1020     0.9615     4.9124
  669   13.360   3153.72     2.7906     0.1033     0.9377     4.8888
  670   13.380   3154.59     2.7959     0.1034     0.9129     4.8529
  671   13.400   3155.58     2.8275     0.1031     0.9141     4.8985
  672   13.420   3156.45     2.8674     0.1055     0.9260     4.8842
  673   13.440   3157.34     2.8912     0.1097     0.9229     4.8952
  674   13.460   3158.27     2.8691     0.1107     0.9136     4.9026
  675   13.480   3159.19     2.7932     0.1109     0.8436     4.9024
  676   13.500   3160.18     2.7794     0.1101     0.8112     4.9027
  677   13.520   3161.05     2.8050     0.1108     0.7828     4.9077
  678   13.540   3161.96     2.8018     0.1124     0.7664     4.9282
  679   13.560   3162.87     2.7624     0.1102     0.7684     4.9696
  680   13.580   3163.81     2.7603     0.1092     0.7609     5.0073
  681   13.600   3164.70     2.7693     0.1076     0.7459     4.9951
  682   13.620   3165.61     2.7683     0.1085     0.7459     4.9674
  683   13.640   3166.56     2.7385     0.1120     0.7377     5.0001
  684   13.660   3167.47     2.8335     0.1116     0.7228     4.9873
  685   13.680   3168.43     2.9234     0.1119     0.7290     4.9713
  686   13.700   3169.39     2.9392     0.1134     0.7297     4.9836
  687   13.720   3170.25     2.9452     0.1144     0.7326     4.9670
  688   13.740   3171.12     2.9462     0.1146     0.7365     4.9663
  689   13.760   3172.03     2.9293     0.1144     0.7180     4.9865
  690   13.780   3172.94     2.9495     0.1144     0.7152     5.0024
  691   13.800   3173.85     2.9479     0.1147     0.7055     5.0287
  692   13.820   3174.80     2.9686     0.1153     0.6987     5.0258
  693   13.840   3175.71     2.9241     0.1137     0.6879     5.0396
  694   13.860   3176.63     2.9061     0.1158     0.6796     5.0655
  695   13.880   3177.53     2.9176     0.1144     0.6809     5.0312
  696   13.900   3178.40     2.9817     0.1140     0.6923     5.0294
  697   13.920   3179.36     2.9589     0.1130     0.6993     5.0234
  698   13.940   3180.27     2.9571     0.1127     0.6850     5.0263
  699   13.960   3181.18     2.9543     0.1124     0.6919     5.0091
  700   13.980   3182.05     2.9621     0.1134     0.6925     5.0175
  701   14.000   3183.04     2.9311     0.1148     0.6802     5.0030
  702   14.020   3183.96     2.9280     0.1153     0.6689     5.0033
  703   14.040   3184.89     2.8862     0.1149     0.6621     4.9967
  704   14.060   3185.78     2.8953     0.1179     0.6565     4.9725
  705   14.080   3186.70     2.9111     0.1180     0.6478     5.0116
  706   14.100   3187.64     2.9350     0.1166     0.6402     5.0021
  707   14.120   3188.51     2.9478     0.1160     0.6336     5.0145
  708   14.140   3189.42     2.9751     0.1159     0.6124     5.0230
  709   14.160   3190.45     2.9306     0.1175     0.6079     5.0136
  710   14.180   3191.36     2.8965     0.1178     0.5826     5.0448
  711   14.200   3192.21     2.9602     0.1195     0.5667     5.0150
  712   14.220   3193.15     2.9647     0.1211     0.5552     5.0216
  713   14.240   3194.06     2.9428     0.1250     0.5547     5.0384
  714   14.260   3194.96     3.0006     0.1270     0.5586     5.0218
  715   14.280   3195.87     3.0813     0.1287     0.5577     5.0259
  716   14.300   3196.73     3.1514     0.1257     0.5706     5.0374
  717   14.320   3197.71     3.1978     0.1254     0.5858     5.0483
  718   14.340   3198.58     3.1895     0.1253     0.5920     5.0824
  719   14.360   3199.50     3.1121     0.1239     0.5886     5.0708
  720   14.380   3200.40     3.0544     0.1227     0.5733     5.1039
  721   14.400   3201.35     3.1251     0.1233     0.5607     5.1042
  722   14.420   3202.22     3.1106     0.1237     0.5644     5.1007
  723   14.440   3203.13     3.0664     0.1243     0.5638     5.0916
  724   14.460   3204.08     3.0510     0.1252     0.5678     5.1064
  725   14.480   3205.00     3.0323     0.1259     0.5779     5.0834
  726   14.500   3205.91     3.0474     0.1272     0.5900     5.0633
  727   14.520   3206.79     3.0609     0.1247     0.6089     5.0677
  728   14.540   3207.74     3.0357     0.1180     0.6193     5.0563
  729   14.560   3208.64     3.0248     0.1095     0.6421     5.0360
  730   14.580   3209.59     2.9685     0.1072     0.6668     5.0334
  731   14.600   3210.46     2.8435     0.1069     0.6787     5.0617
  732   14.620   3211.37     2.7527     0.1077     0.6757     5.0609
  733   14.640   3212.30     2.7614     0.1060     0.6479     5.0725
  734   14.660   3213.24     2.8749     0.1059     0.6243     5.0517
  735   14.680   3214.20     2.9391     0.1082     0.6167     5.0218
  736   14.700   3215.11     2.9851     0.1141     0.6209     5.0523
  737   14.720   3215.98     2.9745     0.1178     0.6213     5.0658
  738   14.740   3216.90     2.9779     0.1192     0.6243     5.0587
  739   14.760   3217.76     2.9750     0.1201     0.6150     5.0505
  740   14.780   3218.75     2.9650     0.1199     0.6094     5.0698
  741   14.800   3219.62     2.9098     0.1230     0.6125     5.0715
  742   14.820   3220.49     2.8886     0.1178     0.6138     5.1117
  743   14.840   3221.44     2.9007     0.1167     0.6226     5.1128
  744   14.860   3222.35     2.8948     0.1196     0.6235     5.1079
  745   14.880   3223.21     2.9814     0.1227     0.6343     5.1561
  746   14.900   3224.12     2.9707     0.1261     0.6456     5.1676
  747   14.920   3225.04     3.0647     0.1294     0.6108     5.1438
  748   14.940   3225.98     3.1861     0.1305     0.6125     5.1795
  749   14.960   3226.88     3.2225     0.1323     0.6269     5.1440
  750   14.980   3227.81     3.2215     0.1350     0.6415     5.1568
  751   15.000   3228.73     3.1705     0.1328     0.6495     5.1707
  752   15.020   3229.72     3.1138     0.1280     0.6620     5.1909
  753   15.040   3230.59     3.0809     0.1249     0.6661     5.2012
  754   15.060   3231.46     3.0934     0.1243     0.6768     5.2185
  755   15.080   3232.46     3.1439     0.1197     0.6906     5.2213
  756   15.100   3233.33     3.1578     0.1174     0.7066     5.2022
  757   15.120   3234.27     3.1451     0.1148     0.7124     5.2422
  758   15.140   3235.15     3.1312     0.1124     0.7289     5.2210
  759   15.160   3236.15     3.0854     0.1114     0.7396     5.2205
  760   15.180   3237.06     3.0875     0.1108     0.7481     5.2429
  761   15.200   3237.96     3.1200     0.1130     0.7614     5.2646
  762   15.220   3238.86     3.1187     0.1142     0.7683     5.2578
  763   15.240   3239.78     3.1349     0.1156     0.7765     5.2606
  764   15.260   3240.66     3.1502     0.1127     0.7902     5.2696
  765   15.280   3241.57     3.1562     0.1130     0.8004     5.2806
  766   15.300   3242.48     3.1646     0.1117     0.8172     5.2916
  767   15.320   3243.42     3.1766     0.1108     0.8284     5.2919
  768   15.340   3244.33     3.1593     0.1103     0.8303     5.2910
  769   15.360   3245.17     3.1257     0.1101     0.8301     5.2935
  770   15.380   3246.13     3.1350     0.1082     0.8257     5.2856
  771   15.400   3247.04     3.1358     0.1095     0.8271     5.3017
  772   15.420   3247.92     3.1081     0.1110     0.8255     5.3130
  773   15.440   3248.83     3.1036     0.1110     0.8261     5.3129
  774   15.460   3249.77     3.0681     0.1112     0.8138     5.3206
  775   15.480   3250.69     3.0476     0.1108     0.7975     5.3217
  776   15.500   3251.64     2.9953     0.1121     0.7891     5.3042
  777   15.520   3252.50     2.9486     0.1132     0.7694     5.3326
  778   15.540   3253.46     2.9262     0.1164     0.7427     5.3470
  779   15.560   3254.42     2.8978     0.1216     0.7348     5.3384
  780   15.580   3255.27     2.9098     0.1253     0.7272     5.3498
  781   15.600   3256.20     2.9387     0.1263     0.7105     5.3728
  782   15.620   3257.15     2.9776     0.1281     0.6969     5.3723
  783   15.640   3258.03     3.0398     0.1309     0.7203     5.3684
  784   15.660   3258.95     3.0264     0.1363     0.7354     5.3729
  785   15.680   3259.86     3.0555     0.1316     0.7427     5.3906
  786   15.700   3260.87     3.0817     0.1268     0.7497     5.3836
  787   15.720   3261.70     3.0595     0.1263     0.7645     5.3840
  788   15.740   3262.57     3.0423     0.1266     0.7814     5.4061
  789   15.760   3263.47     3.0700     0.1242     0.7998     5.4077
  790   15.780   3264.47     3.0829     0.1217     0.8141     5.3724
  791   15.800   3265.33     3.1219     0.1221     0.8342     5.3579
  792   15.820   3266.17     3.1782     0.1157     0.8521     5.3907
  793   15.840   3267.18     3.3135     0.1207     0.8702     5.4061
  794   15.860   3268.09     3.3580     0.1217     0.8646     5.3788
  795   15.880   3268.95     3.2837     0.1288     0.8887     5.3815
  796   15.900   3269.80     3.2613     0.1319     0.8671     5.3685
  797   15.920   3270.78     3.2844     0.1281     0.8475     5.4051
  798   15.940   3271.73     3.1463     0.1223     0.8517     5.3728
  799   15.960   3272.60     3.0661     0.1249     0.8468     5.3854
  800   15.980   3273.42     3.0121     0.1194     0.8601     5.4170
  801   16.000   3274.49     2.9478     0.1134     0.8658     5.3705
  802   16.020   3275.42     2.9044     0.1083     0.8636     5.3885
  803   16.040   3276.23     2.8883     0.1093     0.8557     5.3948
  804   16.060   3277.16     2.9140     0.1042     0.8570     5.4052
  805   16.080   3278.16     2.9110     0.1015     0.8585     5.3675
  806   16.100   3279.07     2.8691     0.1051     0.8554     5.3691
  807   16.120   3279.91     2.8509     0.1104     0.8514     5.3795
  808   16.140   3280.84     2.8576     0.1119     0.8553     5.3703
  809   16.160   3281.85     2.8646     0.1122     0.8298     5.4127
  810   16.180   3282.76     2.8651     0.1155     0.8021     5.3785
  811   16.200   3283.59     2.8283     0.1194     0.7836     5.4276
  812   16.220   3284.53     2.8431     0.1207     0.7616     5.4230
  813   16.240   3285.54     2.7764     0.1207     0.7521     5.3823
  814   16.260   3286.38     2.7078     0.1200     0.7369     5.3897
  815   16.280   3287.22     2.7128     0.1204     0.7241     5.3953
  816   16.300   3288.18     2.7353     0.1143     0.7217     5.3753
  817   16.320   3289.14     2.7354     0.1134     0.7240     5.3816
  818   16.340   3289.98     2.7177     0.1161     0.7132     5.3945
  819   16.360   3290.84     2.7338     0.1160     0.7067     5.4008
  820   16.380   3291.85     2.7935     0.1156     0.6900     5.3982
  821   16.400   3292.80     2.8014     0.1202     0.6689     5.4032
  822   16.420   3293.61     2.8181     0.1241     0.6547     5.3834
  823   16.440   3294.47     2.8295     0.1266     0.6350     5.4071
  824   16.460   3295.51     2.8927     0.1263     0.6225     5.4225
  825   16.480   3296.45     2.8521     0.1278     0.6091     5.3814
  826   16.500   3297.26     2.8651     0.1299     0.5898     5.4145
  827   16.520   3298.21     2.8992     0.1281     0.5794     5.4311
  828   16.540   3299.22     2.8471     0.1231     0.5766     5.4698
  829   16.560   3300.12     2.7976     0.1241     0.5681     5.4790
  830   16.580   3300.96     2.7428     0.1238     0.5603     5.4804
  831   16.600   3301.90     2.7395     0.1193     0.5603     5.4977
  832   16.620   3302.92     2.7359     0.1194     0.5646     5.4851
  833   16.640   3303.78     2.7622     0.1185     0.5630     5.4915
  834   16.660   3304.68     2.8645     0.1176     0.5692     5.4730
  835   16.680   3305.59     2.8805     0.1190     0.5759     5.4829
  836   16.700   3306.59     2.9077     0.1220     0.5780     5.4997
  837   16.720   3307.41     2.8777     0.1235     0.5818     5.5047
  838   16.740   3308.29     2.8917     0.1235     0.5737     5.5110
  839   16.760   3309.25     3.0148     0.1229     0.5841     5.4829
  840   16.780   3310.19     3.0475     0.1254     0.6038     5.4724
  841   16.800   3311.03     3.0317     0.1238     0.6122     5.4506
  842   16.820   3311.92     3.0534     0.1200     0.6147     5.4707
  843   16.840   3312.93     3.0577     0.1175     0.6177     5.4418
  844   16.860   3313.82     3.0066     0.1186     0.6261     5.4562
  845   16.880   3314.66     2.9791     0.1186     0.6341     5.4745
  846   16.900   3315.61     3.0330     0.1192     0.6376     5.4397
  847   16.920   3316.57     3.0971     0.1165     0.6481     5.4809
  848   16.940   3317.48     3.0818     0.1148     0.6607     5.4648
  849   16.960   3318.35     3.0633     0.1131     0.6686     5.4588
  850   16.980   3319.26     3.0633     0.1120     0.6910     5.4966
  851   17.000   3320.23     3.0030     0.1125     0.6931     5.4968
  852   17.020   3321.17     2.9879     0.1101     0.6937     5.4836
  853   17.040   3322.04     2.9940     0.1087     0.6897     5.4949
  854   17.060   3323.02     3.0935     0.1111     0.6916     5.4734
  855   17.080   3324.00     3.1502     0.1142     0.7093     5.4840
  856   17.100   3324.82     3.1349     0.1172     0.7167     5.5158
  857   17.120   3325.73     3.1754     0.1173     0.7179     5.5056
  858   17.140   3326.65     3.2273     0.1149     0.7310     5.5365
  859   17.160   3327.60     3.2557     0.1168     0.7478     5.5115
  860   17.180   3328.52     3.2539     0.1186     0.7652     5.5232
  861   17.200   3329.45     3.2278     0.1184     0.7724     5.5131
  862   17.220   3330.41     3.2182     0.1151     0.7768     5.4896
  863   17.240   3331.29     3.2254     0.1145     0.7846     5.4961
  864   17.260   3332.16     3.2246     0.1115     0.7934     5.5219
  865   17.280   3333.11     3.2228     0.1102     0.8053     5.5067
  866   17.300   3334.07     3.2139     0.1076     0.8121     5.5142
  867   17.320   3334.95     3.2194     0.1065     0.8195     5.5045
  868   17.340   3335.85     3.2562     0.1039     0.8212     5.5133
  869   17.360   3336.76     3.2990     0.1015     0.8180     5.4943
  870   17.380   3337.71     3.1744     0.1023     0.8239     5.5155
  871   17.400   3338.58     3.1516     0.1046     0.8309     5.5015
  872   17.420   3339.48     3.1407     0.1055     0.8305     5.4873
  873   17.440   3340.43     3.1280     0.1056     0.8225     5.4765
  874   17.460   3341.34     3.1142     0.1088     0.8142     5.4646
  875   17.480   3342.27     3.1098     0.1138     0.7970     5.4416
  876   17.500   3343.19     3.1293     0.1188     0.7902     5.4593
  877   17.520   3344.19     3.1307     0.1218     0.7833     5.4144
  878   17.540   3345.06     3.1268     0.1256     0.7797     5.3920
  879   17.560   3346.01     3.0950     0.1264     0.7904     5.3963
  880   17.580   3346.88     3.0667     0.1249     0.7995     5.4201
  881   17.600   3347.88     3.0674     0.1213     0.8163     5.3814
  882   17.620   3348.78     3.1349     0.1166     0.8392     5.3719
  883   17.640   3349.70     3.1817     0.1140     0.8588     5.3628
  884   17.660   3350.61     3.1637     0.1132     0.8679     5.3802
  885   17.680   3351.66     3.1235     0.1126     0.8680     5.3674
  886   17.700   3352.53     3.1545     0.1112     0.8562     5.3328
  887   17.720   3353.42     3.1938     0.1120     0.8532     5.3036
  888   17.740   3354.30     3.1368     0.1134     0.8540     5.3228
  889   17.760   3355.22     3.0721     0.1088     0.8605     5.3227
  890   17.780   3356.13     3.0376     0.1061     0.8667     5.3262
  891   17.800   3357.00     3.0128     0.1026     0.8799     5.3188
  892   17.820   3357.99     2.9765     0.1002     0.8984     5.2894
  893   17.840   3358.90     2.9102     0.0989     0.9149     5.3301
  894   17.860   3359.82     2.8869     0.0981     0.9105     5.3047
  895   17.880   3360.68     2.9193     0.0973     0.9178     5.3255
  896   17.900   3361.68     2.9751     0.0987     0.9245     5.2960
  897   17.920   3362.55     3.0476     0.1014     0.9327     5.2824
  898   17.940   3363.46     3.0663     0.1040     0.9359     5.3165
  899   17.960   3364.37     2.9894     0.1067     0.9164     5.3076
  900   17.980   3365.32     2.9769     0.1114     0.8936     5.2907
  901   18.000   3366.28     2.9745     0.1168     0.8786     5.2876
  902   18.020   3367.15     3.0221     0.1205     0.8742     5.2686
  903   18.040   3368.11     3.0899     0.1198     0.8633     5.2971
  904   18.060   3369.06     3.1227     0.1211     0.8600     5.2836
  905   18.080   3369.99     3.1761     0.1195     0.8794     5.3064
  906   18.100   3370.84     3.1831     0.1181     0.9207     5.2939
  907   18.120   3371.80     3.0940     0.1184     0.9321     5.2978
  908   18.140   3372.71     3.0569     0.1176     0.9389     5.2828
  909   18.160   3373.62     3.0284     0.1141     0.9526     5.3041
  910   18.180   3374.58     3.0783     0.1136     0.9654     5.3145
  911   18.200   3375.49     3.1400     0.1095     0.9857     5.3168
  912   18.220   3376.40     3.2454     0.1089     1.0214     5.3334
  913   18.240   3377.34     3.3495     0.1078     1.0581     5.3113
  914   18.260   3378.22     3.3367     0.1070     1.0848     5.3326
  915   18.280   3379.18     3.3199     0.1046     1.0973     5.3564
  916   18.300   3380.09     3.3496     0.1036     1.1068     5.3549
  917   18.320   3380.99     3.3668     0.1037     1.1251     5.3551
  918   18.340   3381.87     3.3623     0.1039     1.1401     5.3335
  919   18.360   3382.82     3.3811     0.1037     1.1502     5.3681
  920   18.380   3383.77     3.4085     0.1019     1.1604     5.3656
  921   18.400   3384.64     3.3854     0.1002     1.1713     5.3910
  922   18.420   3385.55     3.3612     0.0991     1.1888     5.4025
  923   18.440   3386.51     3.3680     0.0986     1.2137     5.4062
  924   18.460   3387.40     3.3684     0.0966     1.2431     5.4085
  925   18.480   3388.34     3.3522     0.0948     1.2695     5.4176
  926   18.500   3389.26     3.3170     0.0964     1.2843     5.4019
  927   18.520   3390.26     3.3185     0.0965     1.3117     5.4287
  928   18.540   3391.16     3.2851     0.0947     1.3265     5.4208
  929   18.560   3392.03     3.3024     0.0956     1.3403     5.3866
  930   18.580   3392.94     3.3569     0.0956     1.3586     5.4384
  931   18.600   3393.91     3.3947     0.0958     1.3905     5.4701
  932   18.620   3394.82     3.3692     0.0952     1.3975     5.4816
  933   18.640   3395.75     3.3803     0.0958     1.4071     5.4700
  934   18.660   3396.69     3.3765     0.0975     1.4226     5.4772
  935   18.680   3397.67     3.3168     0.0967     1.4339     5.5014
  936   18.700   3398.54     3.2748     0.0978     1.4409     5.4859
  937   18.720   3399.44     3.2264     0.0990     1.4396     5.5040
  938   18.740   3400.37     3.2411     0.0992     1.4586     5.5105
  939   18.760   3401.26     3.2369     0.1014     1.4796     5.5018
  940   18.780   3402.19     3.1874     0.1034     1.4812     5.5361
  941   18.800   3403.10     3.2220     0.1002     1.4874     5.5209
  942   18.820   3404.01     3.2795     0.1000     1.5001     5.5394
  943   18.840   3404.94     3.3490     0.1002     1.5195     5.5256
  944   18.860   3405.82     3.3924     0.0993     1.5531     5.5593
  945   18.880   3406.75     3.3640     0.0981     1.5907     5.5417
  946   18.900   3407.66     3.3902     0.0977     1.5841     5.5607
  947   18.920   3408.61     3.3858     0.0945     1.5905     5.5502
  948   18.940   3409.48     3.3465     0.0934     1.6052     5.5918
  949   18.960   3410.42     3.3020     0.0932     1.6250     5.5635
  950   18.980   3411.35     3.3198     0.0947     1.6676     5.5872
  951   19.000   3412.28     3.3807     0.0947     1.6988     5.5929
  952   19.020   3413.22     3.4177     0.0942     1.6836     5.6138
  953   19.040   3414.13     3.3894     0.0932     1.6405     5.6272
  954   19.060   3415.13     3.3069     0.0924     1.5887     5.6507
  955   19.080   3415.97     3.1838     0.0938     1.5855     5.6261
  956   19.100   3416.87     3.0697     0.0946     1.5815     5.6335
  957   19.120   3417.81     3.0011     0.0958     1.5609     5.6714
  958   19.140   3418.78     2.9906     0.0979     1.5493     5.6936
  959   19.160   3419.65     3.0740     0.1036     1.5232     5.6859
  960   19.180   3420.65     3.0846     0.1053     1.5081     5.7197
  961   19.200   3421.56     3.0696     0.1065     1.4723     5.7182
  962   19.220   3422.52     3.1084     0.1033     1.5056     5.6940
  963   19.240   3423.38     3.2054     0.1038     1.5847     5.6952
  964   19.260   3424.34     3.2357     0.1058     1.6536     5.6980
  965   19.280   3425.25     3.1991     0.1068     1.6866     5.7115
  966   19.300   3426.12     3.1788     0.1073     1.7079     5.7140
  967   19.320   3427.08     3.2089     0.1075     1.6982     5.6931
  968   19.340   3427.94     3.2397     0.1081     1.7076     5.7320
  969   19.360   3428.92     3.2535     0.1094     1.7220     5.7275
  970   19.380   3429.80     3.2652     0.1105     1.7465     5.7807
  971   19.400   3430.72     3.2715     0.1107     1.7699     5.7701
  972   19.420   3431.64     3.2879     0.1110     1.7786     5.7460
  973   19.440   3432.55     3.3086     0.1102     1.7884     5.7822
  974   19.460   3433.43     3.3093     0.1103     1.8057     5.7698
  975   19.480   3434.37     3.3237     0.1104     1.8154     5.7716
  976   19.500   3435.33     3.3516     0.1082     1.8146     5.7923
  977   19.520   3436.29     3.3726     0.1072     1.8119     5.7888
  978   19.540   3437.15     3.3726     0.1079     1.7933     5.8071
  979   19.560   3438.11     3.3465     0.1083     1.7858     5.8332
  980   19.580   3439.02     3.2964     0.1073     1.7442     5.8121
  981   19.600   3439.93     3.2815     0.1071     1.6729     5.8220
  982   19.620   3440.85     3.3268     0.1072     1.6365     5.8288
  983   19.640   3441.76     3.3443     0.1096     1.6068     5.8318
  984   19.660   3442.76     3.3543     0.1115     1.5819     5.8318
  985   19.680   3443.67     3.3661     0.1117     1.5384     5.8604
  986   19.700   3444.58     3.3964     0.1136     1.5556     5.8547
  987   19.720   3445.45     3.4152     0.1154     1.5564     5.8786
  988   19.740   3446.39     3.4903     0.1134     1.5729     5.8804
  989   19.760   3447.28     3.5330     0.1130     1.5904     5.9282
  990   19.780   3448.14     3.5823     0.1118     1.6004     5.9144
  991   19.800   3449.15     3.5546     0.1103     1.6259     5.9334
  992   19.820   3450.06     3.4387     0.1082     1.6017     5.9416
  993   19.840   3450.95     3.4052     0.1080     1.5354     5.9411
  994   19.860   3451.84     3.3968     0.1090     1.5116     5.9435
  995   19.880   3452.76     3.3402     0.1104     1.4620     5.9560
  996   19.900   3453.70     3.3175     0.1113     1.4126     5.9567
  997   19.920   3454.57     3.2921     0.1110     1.3752     5.9622
  998   19.940   3455.53     3.2952     0.1113     1.3676     5.9857
  999   19.960   3456.44     3.3459     0.1140     1.3548     5.9837
 1000   19.980   3457.40     3.3981     0.1120     1.3599     5.9736
 1001   20.000   3458.31     3.3719     0.1123     1.3431     5.9639
 1002   20.020   3459.27     3.3535     0.1140     1.3310     5.9633
 1003   20.040   3460.19     3.3364     0.1135     1.3088     5.9809
 1004   20.060   3461.10     3.2601     0.1148     1.2615     6.0081
 1005   20.080   3462.06     3.2359     0.1169     1.2102     5.9704
 1006   20.100   3462.97     3.2658     0.1193     1.1877     6.0038
 1007   20.120   3463.97     3.2943     0.1194     1.1810     6.0207
 1008   20.140   3464.86     3.3561     0.1223     1.1767     6.0193
 1009   20.160   3465.76     3.4182     0.1188     1.1859     6.0261
 1010   20.180   3466.71     3.5175     0.1143     1.2193     6.0327
 1011   20.200   3467.62     3.4515     0.1141     1.2136     6.0969
 1012   20.220   3468.58     3.4205     0.1135     1.2002     6.0823
 1013   20.240   3469.42     3.3869     0.1142     1.1974     6.0675
 1014   20.260   3470.40     3.3656     0.1167     1.1480     6.1054
 1015   20.280   3471.27     3.3615     0.1195     1.1069     6.1003
 1016   20.300   3472.22     3.3156     0.1192     1.0679     6.1310
 1017   20.320   3473.09     3.3231     0.1227     1.0451     6.1103
 1018   20.340   3474.04     3.3964     0.1249     1.0430     6.1242
 1019   20.360   3474.96     3.5414     0.1239     1.0641     6.1149
 1020   20.380   3475.85     3.5834     0.1246     1.0607     6.0878
 1021   20.400   3476.79     3.4966     0.1252     1.0215     6.1047
 1022   20.420   3477.71     3.4435     0.1232     1.0025     6.0813
 1023   20.440   3478.66     3.3650     0.1230     0.9642     6.0794
 1024   20.460   3479.53     3.3653     0.1243     0.9274     6.0533
 1025   20.480   3480.52     3.3587     0.1267     0.8993     6.0367
 1026   20.500   3481.44     3.3213     0.1340     0.8815     6.0497
 1027   20.520   3482.38     3.2650     0.1339     0.8301     6.0194
 1028   20.540   3483.30     3.2880     0.1344     0.7870     6.0046
 1029   20.560   3484.19     3.2991     0.1340     0.7856     6.0480
 1030   20.580   3485.29     3.2637     0.1315     0.7968     6.0195
 1031   20.600   3486.24     3.2574     0.1290     0.8001     6.0232
 1032   20.620   3487.19     3.2535     0.1267     0.8009     6.0553
 1033   20.640   3488.15     3.3323     0.1233     0.8282     6.0379
 1034   20.660   3489.10     3.2699     0.1221     0.8252     6.0805
 1035   20.680   3490.02     3.2383     0.1208     0.8278     6.0447
 1036   20.700   3490.91     3.2433     0.1186     0.8466     6.0857
 1037   20.720   3491.79     3.2561     0.1193     0.8621     6.1008
 1038   20.740   3492.72     3.2688     0.1182     0.8729     6.0770
 1039   20.760   3493.62     3.3475     0.1155     0.8975     6.0836
 1040   20.780   3494.50     3.3493     0.1119     0.9155     6.0892
 1041   20.800   3495.49     3.3228     0.1098     0.9199     6.0991
 1042   20.820   3496.38     3.3190     0.1096     0.9355     6.1213
 1043   20.840   3497.32     3.2648     0.1096     0.9424     6.1218
 1044   20.860   3498.18     3.2174     0.1086     0.9410     6.1343
 1045   20.880   3499.14     3.1839     0.1066     0.9355     6.1778
 1046   20.900   3500.05     3.2016     0.1049     0.9445     6.1656
 1047   20.920   3500.95     3.2242     0.1046     0.9612     6.1321
 1048   20.940   3501.88     3.2499     0.1036     0.9781     6.1256
 1049   20.960   3502.83     3.2149     0.1044     0.9829     6.1777
 1050   20.980   3503.79     3.1870     0.1037     0.9862     6.1608
 1051   21.000   3504.72     3.1773     0.1026     0.9946     6.1828
 1052   21.020   3505.71     3.1642     0.1064     0.9963     6.1967
 1053   21.040   3506.62     3.1772     0.1086     1.0009     6.1814
 1054   21.060   3507.58     3.1587     0.1073     1.0119     6.1791
 1055   21.080   3508.46     3.2149     0.1034     1.0174     6.1960
 1056   21.100   3509.38     3.3108     0.1045     1.0215     6.2132
 1057   21.120   3510.32     3.2455     0.1065     1.0307     6.1864
 1058   21.140   3511.24     3.0951     0.1041     1.0402     6.2402
 1059   21.160   3512.19     3.0082     0.1013     1.0119     6.2015
 1060   21.180   3513.10     3.0821     0.0993     1.0018     6.2255
 1061   21.200   3514.05     3.1609     0.1020     1.0227     6.1873
 1062   21.220   3514.94     3.1441     0.1065     1.0357     6.2372
 1063   21.240   3515.86     3.1530     0.1078     1.0293     6.2194
 1064   21.260   3516.82     3.1727     0.1067     1.0141     6.1988
 1065   21.280   3517.70     3.1779     0.1073     0.9929     6.2236
 1066   21.300   3518.62     3.1693     0.1092     1.0040     6.2108
 1067   21.320   3519.54     3.1316     0.1110     1.0171     6.2216
 1068   21.340   3520.48     3.1693     0.1113     1.0215     6.2026
 1069   21.360   3521.38     3.2154     0.1110     1.0187     6.2138
 1070   21.380   3522.29     3.2668     0.1119     1.0128     6.2098
 1071   21.400   3523.23     3.2467     0.1112     1.0146     6.2430
 1072   21.420   3524.15     3.2200     0.1143     0.9840     6.2406
 1073   21.440   3525.06     3.2456     0.1108     0.9838     6.2467
 1074   21.460   3525.97     3.2149     0.1108     0.9870     6.2848
 1075   21.480   3527.01     3.1720     0.1087     0.9974     6.2738
 1076   21.500   3528.01     3.0892     0.1095     0.9989     6.2990
 1077   21.520   3529.07     3.1118     0.1088     1.0095     6.2179
 1078   21.540   3530.06     3.0784     0.1111     1.0077     6.2427
 1079   21.560   3531.17     3.0482     0.1146     1.0005     6.1949
 1080   21.580   3532.22     3.0638     0.1147     0.9872     6.1897
 1081   21.600   3533.17     3.1258     0.1155     1.0034     6.2053
 1082   21.620   3534.09     3.1098     0.1147     1.0032     6.2040
 1083   21.640   3535.09     3.0603     0.1120     1.0305     6.1911
 1084   21.660   3536.02     2.9994     0.1118     1.0427     6.2314
 1085   21.680   3536.95     2.9839     0.1102     1.0653     6.2235
 1086   21.700   3537.88     2.9114     0.1058     1.0802     6.2368
 1087   21.720   3538.81     2.8954     0.1044     1.0585     6.2488
 1088   21.740   3539.70     2.9840     0.1022     1.0443     6.2752
 1089   21.760   3540.57     3.0021     0.0983     1.0558     6.2801
 1090   21.780   3541.53     2.9454     0.0981     1.0551     6.2686
 1091   21.800   3542.44     2.9478     0.0984     1.0472     6.2078
 1092   21.820   3543.38     2.9395     0.0974     1.0405     6.1930
 1093   21.840   3544.26     2.9272     0.0981     1.0415     6.1704
 1094   21.860   3545.18     2.9004     0.0982     1.0248     6.1621
 1095   21.880   3546.14     2.8834     0.0969     1.0062     6.1149
 1096   21.900   3547.05     2.9347     0.0965     0.9936     6.1539
 1097   21.920   3547.98     2.9247     0.0984     0.9938     6.1128
 1098   21.940   3548.92     2.9085     0.1002     0.9911     6.1158
 1099   21.960   3549.85     2.9079     0.1032     0.9822     6.1194
 1100   21.980   3550.79     2.9012     0.1040     0.9800     6.1701
 1101   22.000   3551.79     2.8996     0.1051     0.9760     6.1755
 1102   22.020   3552.91     2.8826     0.1047     0.9537     6.1872
 1103   22.040   3553.92     2.9506     0.1035     0.9465     6.1793
 1104   22.060   3554.82     2.9700     0.1040     0.9554     6.1977
 1105   22.080   3555.81     2.9353     0.1061     0.9554     6.2177
 1106   22.100   3556.71     2.8491     0.1070     0.9485     6.2345
 1107   22.120   3557.68     2.8095     0.1068     0.9021     6.2476
 1108   22.140   3558.55     2.8720     0.1047     0.8766     6.2649
 1109   22.160   3559.55     2.8963     0.1022     0.8637     6.2448
 1110   22.180   3560.46     2.9382     0.1054     0.8738     6.2953
 1111   22.200   3561.37     2.9843     0.1070     0.8725     6.2779
 1112   22.220   3562.27     2.9918     0.1078     0.8614     6.3135
 1113   22.240   3563.16     3.0225     0.1088     0.8425     6.3296
 1114   22.260   3564.15     2.9879     0.1104     0.7981     6.3279
 1115   22.280   3565.02     2.9485     0.1106     0.8043     6.3520
 1116   22.300   3565.95     2.9280     0.1093     0.8069     6.3452
 1117   22.320   3566.90     2.9762     0.1101     0.8158     6.3563
 1118   22.340   3567.84     3.0300     0.1123     0.8308     6.3656
 1119   22.360   3568.71     3.0803     0.1114     0.8520     6.4097
 1120   22.380   3569.68     3.1671     0.1106     0.8846     6.4227
 1121   22.400   3570.70     3.1388     0.1105     0.9146     6.4123
 1122   22.420   3571.79     3.1010     0.1101     0.9097     6.4181
 1123   22.440   3572.83     3.0453     0.1091     0.8991     6.4418
 1124   22.460   3573.79     3.0341     0.1090     0.8922     6.4496
 1125   22.480   3574.75     3.0136     0.1093     0.8925     6.4642
 1126   22.500   3575.70     3.0070     0.1104     0.9011     6.4756
 1127   22.520   3576.58     3.0485     0.1121     0.9108     6.5037
 1128   22.540   3577.57     3.0670     0.1138     0.9188     6.5436
 1129   22.560   3578.49     3.0341     0.1131     0.9155     6.5373
 1130   22.580   3579.42     3.0085     0.1117     0.9069     6.5682
 1131   22.600   3580.32     3.0147     0.1112     0.9176     6.5415
 1132   22.620   3581.24     3.0692     0.1128     0.9470     6.5754
 1133   22.640   3582.23     3.1270     0.1141     0.9770     6.6011
 1134   22.660   3583.15     3.1210     0.1119     0.9787     6.5602
 1135   22.680   3584.11     3.1149     0.1112     0.9769     6.6065
 1136   22.700   3585.02     3.0910     0.1107     0.9859     6.6140
 1137   22.720   3585.91     3.1051     0.1109     1.0038     6.6187
 1138   22.740   3586.83     3.0940     0.1072     1.0154     6.6053
 1139   22.760   3587.72     3.0781     0.1036     1.0265     6.6416
 1140   22.780   3588.67     3.0319     0.1037     1.0323     6.6609
 1141   22.800   3589.63     2.9932     0.1009     1.0410     6.6783
 1142   22.820   3590.54     2.9512     0.0966     1.0473     6.6704
 1143   22.840   3591.43     2.9272     0.0999     1.0528     6.6601
 1144   22.860   3592.59     2.8927     0.0997     1.0557     6.6578
 1145   22.880   3593.76     2.8943     0.0962     1.0677     6.6784
 1146   22.900   3594.88     2.8899     0.0946     1.0795     6.6678
 1147   22.920   3596.04     2.8728     0.0948     1.0861     6.6855
 1148   22.940   3597.36     2.8496     0.0949     1.1133     6.6960
 1149   22.960   3598.42     2.8573     0.0948     1.1124     6.6815
 1150   22.980   3599.44     2.8965     0.0915     1.0944     6.7017
 1151   23.000   3600.36     2.8743     0.0948     1.0856     6.7078
 1152   23.020   3601.34     2.8913     0.0971     1.0768     6.7111
 1153   23.040   3602.23     2.8577     0.0975     1.0858     6.6818
 1154   23.060   3603.14     2.8028     0.0971     1.0962     6.7267
 1155   23.080   3604.20     2.8137     0.0973     1.1077     6.7184
 1156   23.100   3605.15     2.8575     0.0995     1.1230     6.7020
 1157   23.120   3606.06     2.8289     0.1001     1.1329     6.7285
 1158   23.140   3606.98     2.7742     0.0995     1.1232     6.6895
 1159   23.160   3607.97     2.7534     0.1005     1.0725     6.7096
 1160   23.180   3608.87     2.7907     0.1003     1.0528     6.7404
 1161   23.200   3609.75     2.8141     0.1007     1.0774     6.7643
 1162   23.220   3610.68     2.7936     0.1014     1.0632     6.7317
 1163   23.240   3611.64     2.8583     0.1007     1.0476     6.7283
 1164   23.260   3612.56     2.8560     0.0993     1.0488     6.7868
 1165   23.280   3613.44     2.8217     0.1008     1.0468     6.7921
 1166   23.300   3614.42     2.7646     0.1034     1.0677     6.7935
 1167   23.320   3615.50     2.7052     0.1035     1.0491     6.7917
 1168   23.340   3616.66     2.7328     0.1027     1.0283     6.8333
 1169   23.360   3617.74     2.7449     0.1015     1.0125     6.8043
 1170   23.380   3618.90     2.7561     0.1032     1.0174     6.8005
 1171   23.400   3620.07     2.7549     0.1028     1.0131     6.8015
 1172   23.420   3621.04     2.8073     0.1043     1.0150     6.8260
 1173   23.440   3621.94     2.8083     0.1050     1.0182     6.8170
 1174   23.460   3622.92     2.7820     0.1057     1.0259     6.8447
 1175   23.480   3623.85     2.7236     0.1024     1.0265     6.8356
 1176   23.500   3624.79     2.7501     0.1028     1.0056     6.8453
 1177   23.520   3625.71     2.7623     0.0996     1.0157     6.8668
 1178   23.540   3626.70     2.7186     0.0968     1.0159     6.9048
 1179   23.560   3627.62     2.6727     0.0936     0.9950     6.9381
 1180   23.580   3628.54     2.6415     0.0961     0.9527     6.9620
 1181   23.600   3629.42     2.5980     0.0932     0.9509     6.9556
 1182   23.620   3630.41     2.5376     0.0946     0.8717     6.9683
 1183   23.640   3631.32     2.5537     0.0933     0.8069     6.9684
 1184   23.660   3632.30     2.5066     0.0891     0.7997     6.9758
 1185   23.680   3633.30     2.3972     0.0895     0.8209     6.9947
 1186   23.700   3634.33     2.3198     0.0934     0.7774     7.0087
 1187   23.720   3635.30     2.3464     0.0911     0.7319     7.0106
 1188   23.740   3636.26     2.4179     0.0916     0.7086     7.0616
 1189   23.760   3637.18     2.4329     0.0955     0.7033     7.0731
 1190   23.780   3638.56     2.4167     0.0968     0.7119     7.0661
 1191   23.800   3639.69     2.4579     0.0961     0.7195     7.0587
 1192   23.820   3640.64     2.4957     0.0950     0.7186     7.1057
 1193   23.840   3641.60     2.5334     0.0938     0.7419     7.1163
 1194   23.860   3642.56     2.6142     0.0948     0.7608     7.1695
 1195   23.880   3643.43     2.6834     0.0961     0.7663     7.2283
 1196   23.900   3644.39     2.7144     0.0982     0.7644     7.2226
 1197   23.920   3645.30     2.7727     0.0992     0.7465     7.2399
 1198   23.940   3646.26     2.8471     0.1004     0.7364     7.2564
 1199   23.960   3647.17     2.8290     0.1008     0.7482     7.2813
 1200   23.980   3648.14     2.7762     0.1017     0.7662     7.2841
 1201   24.000   3649.05     2.7447     0.0975     0.7930     7.2740
 1202   24.020   3650.00     2.7217     0.0924     0.8127     7.3135
 1203   24.040   3650.93     2.7085     0.0897     0.8270     7.2712
 1204   24.060   3651.86     2.7097     0.0909     0.8375     7.2956
 1205   24.080   3652.80     2.7454     0.0892     0.8518     7.3173
 1206   24.100   3653.74     2.8072     0.0866     0.8642     7.3046
 1207   24.120   3654.82     2.8716     0.0856     0.8648     7.3350
 1208   24.140   3656.14     2.9835     0.0839     0.8693     7.3557
 1209   24.160   3657.37     3.0568     0.0818     0.9089     7.3788
 1210   24.180   3658.60     3.1252     0.0753     0.9676     7.3710
 1211   24.200   3660.01     3.4120     0.0779     1.0060     7.3833
 1212   24.220   3661.40     3.8143     0.0835     1.0318     7.3851
 1213   24.240   3662.81     4.4953     0.0922     1.0232     7.4200
 1214   24.260   3664.02     5.2239     0.0955     0.8660     7.4523
 1215   24.280   3665.03     5.8555     0.1062     0.6016     7.4318
 1216   24.300   3666.24     6.5479     0.1202     0.4542     7.4592
 1217   24.320   3667.30     7.1963     0.1348     0.3757     7.4825
 1218   24.340   3668.32     7.8935     0.1434     0.2359     7.4863
 1219   24.360   3669.22     8.2527     0.1620     0.1268     7.5121
 1220   24.380   3670.39     8.5477     0.1782     0.0374     7.5291
 1221   24.400   3671.57     8.7205     0.1639     0.0035     7.5215
 1222   24.420   3672.73     8.8400     0.1584    -0.0392     7.5088
 1223   24.440   3673.86     8.5733     0.1647    -0.0719     7.5230
 1224   24.460   3675.57     8.6984     0.1693    -0.0856     7.5008
 1225   24.480   3677.15     8.8497     0.1785    -0.0893     7.5192
 1226   24.500   3678.15     8.5889     0.1687    -0.1342     7.5176
 1227   24.520   3679.07     7.9063     0.1679    -0.1480     7.5399
 1228   24.540   3680.12     7.3327     0.1628    -0.1494     7.5829
 1229   24.560   3680.97     6.6597     0.1667    -0.1509     7.5328
 1230   24.580   3682.01     6.1797     0.1410    -0.1467     7.5572
 1231   24.600   3683.21     5.9184     0.1328    -0.1448     7.5757
 1232   24.620   3684.53     5.6397     0.1342    -0.1380     7.6139
 1233   24.640   3685.73     5.3207     0.1171    -0.1373     7.6246
 1234   24.660   3686.79     4.7704     0.1125    -0.1310     7.6583
 1235   24.680   3687.71     4.1599     0.1000    -0.1251     7.6680
 1236   24.700   3688.55     3.9803     0.0861    -0.1211     7.6453
 1237   24.720   3689.31     3.7063     0.0752    -0.1167     7.6325
 1238   24.740   3690.14     3.5176     0.0719    -0.1171     7.6609
 1239   24.760   3690.91     3.3296     0.0659    -0.1150     7.6090
 1240   24.780   3691.71     3.1701     0.0653    -0.1141     7.6596
 1241   24.800   3692.76     3.1098     0.0642    -0.1135     7.6567
 1242   24.820   3693.93     3.0754     0.0620    -0.1118     7.6566
 1243   24.840   3695.19     3.0307     0.0628    -0.1096     7.6639
 1244   24.860   3696.36     3.0725     0.0608    -0.1078     7.6691
 1245   24.880   3697.34     3.1065     0.0594    -0.1061     7.6302
 1246   24.900   3698.40     3.1841     0.0646    -0.1038     7.6815
 1247   24.920   3699.45     3.3677     0.0704    -0.1008     7.6884
 1248   24.940   3700.51     3.6832     0.0822    -0.0977     7.7174
 1249   24.960   3701.52     4.2530     0.1009    -0.0953     7.7435
 1250   24.980   3703.02     5.0957     0.1146    -0.0957     7.7490
 1251   25.000   3704.35     5.8433     0.1265    -0.0996     7.7287
 1252   25.020   3705.27     6.2457     0.1361    -0.1033     7.7643
 1253   25.040   3706.25     6.7138     0.1490    -0.1059     7.7553
 1254   25.060   3707.27     7.1016     0.1668    -0.1067     7.7451
 1255   25.080   3708.34     7.0877     0.1568    -0.1159     7.7517
 1256   25.100   3709.28     6.5555     0.1338    -0.1238     7.7295
 1257   25.120   3710.71     5.5666     0.1354    -0.1197     7.7395
 1258   25.140   3712.82     4.7687     0.1338    -0.1120     7.7136
 1259   25.160   3713.82     4.3541     0.1294    -0.1003     7.7274
 1260   25.180   3714.64     3.7015     0.1262    -0.0888     7.7549
 1261   25.200   3715.42     3.5176     0.1184    -0.0842     7.7422
 1262   25.220   3716.28     3.4621     0.1093    -0.0842     7.7859
 1263   25.240   3717.08     3.5462     0.1086    -0.0861     7.7542
 1264   25.260   3717.92     3.5683     0.1152    -0.0864     7.7789
 1265   25.280   3719.06     3.4137     0.1169    -0.0856     7.7774
 1266   25.300   3720.47     3.3602     0.1210    -0.0836     7.7755
 1267   25.320   3721.46     3.3506     0.1164    -0.0817     7.7870
 1268   25.340   3722.42     3.3611     0.1120    -0.0795     7.7705
 1269   25.360   3723.34     3.3269     0.1079    -0.0786     7.7483
 1270   25.380   3724.24     3.3337     0.1072    -0.0768     7.7666
 1271   25.400   3725.04     3.2972     0.1063    -0.0763     7.7886
 1272   25.420   3725.86     3.2957     0.1054    -0.0760     7.8121
 1273   25.440   3726.72     3.3121     0.1032    -0.0754     7.8164
 1274   25.460   3727.56     3.3274     0.1052    -0.0741     7.8002
 1275   25.480   3728.44     3.3049     0.1038    -0.0727     7.7908
 1276   25.500   3729.24     3.2608     0.0974    -0.0726     7.8161
 1277   25.520   3730.12     3.2359     0.0965    -0.0724     7.8319
 1278   25.540   3730.93     3.2122     0.0944    -0.0721     7.8268
 1279   25.560   3731.77     3.2024     0.0958    -0.0707     7.8446
 1280   25.580   3732.64     3.1819     0.0979    -0.0703     7.8071
 1281   25.600   3733.60     3.1986     0.1022    -0.0693     7.8370
 1282   25.620   3734.66     3.1542     0.1087    -0.0696     7.8147
 1283   25.640   3735.67     3.1369     0.0995    -0.0706     7.8212
 1284   25.660   3736.77     3.1654     0.1116    -0.0715     7.8116
 1285   25.680   3737.74     3.2501     0.1119    -0.0702     7.7854
 1286   25.700   3738.73     3.2550     0.1181    -0.0683     7.8036
 1287   25.720   3739.60     3.2168     0.1031    -0.0677     7.7995
 1288   25.740   3740.66     3.1339     0.1223    -0.0672     7.8358
 1289   25.760   3742.11     3.2151     0.1249    -0.0661     7.8485
 1290   25.780   3742.96     3.2634     0.1231    -0.0622     7.8097
 1291   25.800   3744.12     3.2860     0.1246    -0.0593     7.8501
 1292   25.820   3745.22     3.3611     0.1268    -0.0580     7.8618
 1293   25.840   3747.14     3.3260     0.1248    -0.0584     7.8715
 1294   25.860   3748.05     3.4428     0.1239    -0.0584     7.8283
 1295   25.880   3748.90     3.3820     0.1222    -0.0585     7.8418
 1296   25.900   3749.79     3.3395     0.1261    -0.0577     7.8682
 1297   25.920   3750.62     3.2936     0.1232    -0.0579     7.8714
 1298   25.940   3751.42     3.2481     0.1201    -0.0595     7.8981
 1299   25.960   3752.36     3.1786     0.1258    -0.0604     7.8894
 1300   25.980   3753.14     3.1079     0.1276    -0.0598     7.8909
 1301   26.000   3754.19     3.0661     0.1255    -0.0598     7.8809
 1302   26.020   3755.11     3.1051     0.1220    -0.0579     7.8822
 1303   26.040   3756.23     3.0083     0.1160    -0.0531     7.8881
 1304   26.060   3757.45     2.9568     0.1139    -0.0509     7.8588
 1305   26.080   3758.46     3.0449     0.1160    -0.0505     7.8582
 1306   26.100   3759.29     3.0845     0.1147    -0.0510     7.8741
 1307   26.120   3760.18     3.0969     0.1179    -0.0535     7.8941
 1308   26.140   3760.92     3.1616     0.1223    -0.0526     7.9265
 1309   26.160   3761.97     3.1834     0.1228    -0.0507     7.9279
 1310   26.180   3762.78     3.1505     0.1261    -0.0513     7.9083
 1311   26.200   3763.75     3.1718     0.1261    -0.0530     7.9211
 1312   26.220   3764.59     3.2175     0.1234    -0.0525     7.9158
 1313   26.240   3765.41     3.2008     0.1148    -0.0511     7.9167
 1314   26.260   3766.30     3.1522     0.1169    -0.0519     7.9398
 1315   26.280   3767.18     3.1190     0.1219    -0.0517     7.9517
 1316   26.300   3768.16     3.1231     0.1195    -0.0530     7.9552
 1317   26.320   3768.97     3.0900     0.1246    -0.0538     7.9582
 1318   26.340   3769.85     3.0154     0.1353    -0.0542     7.9698
 1319   26.360   3771.02     2.8743     0.1374    -0.0537     8.0100
 1320   26.380   3772.46     2.8758     0.1364    -0.0529     8.0117
 1321   26.400   3773.83     2.9030     0.1293    -0.0530     7.9968
 1322   26.420   3775.28     2.9769     0.1296    -0.0515     8.0204
 1323   26.440   3776.57     3.0982     0.1269    -0.0485     8.0161
 1324   26.460   3777.50     3.1635     0.1236    -0.0463     8.0550
 1325   26.480   3778.40     3.1850     0.1208    -0.0452     8.0455
 1326   26.500   3779.29     3.1604     0.1225    -0.0454     8.0409
 1327   26.520   3780.45     3.1320     0.1246    -0.0424     8.0441
 1328   26.540   3781.32     3.0512     0.1202    -0.0455     8.0743
 1329   26.560   3782.46     3.0497     0.1214    -0.0465     8.0580
 1330   26.580   3783.55     3.0659     0.1253    -0.0467     8.0147
 1331   26.600   3784.66     3.0355     0.1280    -0.0450     8.0300
 1332   26.620   3785.69     2.9905     0.1286    -0.0427     8.0337
 1333   26.640   3786.69     2.8947     0.1250    -0.0442     8.0638
 1334   26.660   3787.93     2.8782     0.1196    -0.0438     8.0883
 1335   26.680   3788.85     2.9359     0.1134    -0.0402     8.1039
 1336   26.700   3789.92     2.9399     0.1116    -0.0348     8.1261
 1337   26.720   3790.84     2.9716     0.1111    -0.0350     8.1391
 1338   26.740   3791.93     3.1380     0.1117    -0.0357     8.1586
 1339   26.760   3792.74     3.2826     0.1113    -0.0351     8.2020
 1340   26.780   3793.74     3.3306     0.1185    -0.0351     8.2193
 1341   26.800   3794.65     3.3219     0.1242    -0.0356     8.2102
 1342   26.820   3795.72     3.3138     0.1247    -0.0354     8.2077
 1343   26.840   3796.66     3.3188     0.1235    -0.0358     8.2234
 1344   26.860   3797.68     3.3304     0.1231    -0.0353     8.2416
 1345   26.880   3798.64     3.3072     0.1247    -0.0350     8.2065
 1346   26.900   3799.65     3.2468     0.1300    -0.0359     8.2491
 1347   26.920   3800.57     3.1981     0.1301    -0.0366     8.2103
 1348   26.940   3801.62     3.1006     0.1318    -0.0393     8.2691
 1349   26.960   3802.67     3.0659     0.1376    -0.0391     8.2285
 1350   26.980   3803.84     3.0675     0.1377    -0.0360     8.2312
 1351   27.000   3804.81     3.0517     0.1424    -0.0345     8.2272
 1352   27.020   3805.99     3.0727     0.1436    -0.0302     8.2024
 1353   27.040   3807.24     3.0296     0.1400    -0.0288     8.2105
 1354   27.060   3808.62     3.0361     0.1264    -0.0293     8.2171
 1355   27.080   3809.73     3.1115     0.0991    -0.0277     8.1967
 1356   27.100   3810.71     3.1517     0.1084    -0.0238     8.2122
 1357   27.120   3811.87     3.2229     0.1122    -0.0186     8.2007
 1358   27.140   3812.81     3.2673     0.1180    -0.0162     8.1709
 1359   27.160   3813.98     3.3496     0.1102    -0.0177     8.1344
 1360   27.180   3815.60     3.3253     0.1042    -0.0185     8.1057
 1361   27.200   3819.00     3.3362     0.1080    -0.0158     8.1239
 1362   27.220   3820.36     3.4760     0.1107    -0.0107     8.1125
 1363   27.240   3821.58     3.4383     0.1177    -0.0075     8.0708
 1364   27.260   3822.60     3.4979     0.1204    -0.0057     8.0902
 1365   27.280   3823.60     3.6101     0.1183    -0.0026     8.0440
 1366   27.300   3824.53     3.6701     0.1200     0.0003     8.0660
 1367   27.320   3825.49     3.6969     0.1054     0.0041     8.1010
 1368   27.340   3826.72     3.6566     0.1272     0.0058     8.1122
 1369   27.360   3827.81     3.6868     0.1264     0.0068     8.1073
 1370   27.380   3828.72     3.6679     0.1222     0.0093     8.1195
 1371   27.400   3829.76     3.7258     0.1227     0.0101     8.1346
 1372   27.420   3830.88     3.7645     0.1270     0.0132     8.1293
 1373   27.440   3832.77     3.8277     0.1273     0.0191     8.1339
 1374   27.460   3833.90     3.8791     0.1181     0.0210     8.1474
 1375   27.480   3834.85     3.9100     0.1260     0.0230     8.1604
 1376   27.500   3836.10     3.8833     0.1280     0.0258     8.1357
 1377   27.520   3837.11     3.8789     0.1190     0.0287     8.1333
 1378   27.540   3838.23     3.8806     0.1126     0.0300     8.1424
 1379   27.560   3839.52     3.8105     0.1181     0.0319     8.1334
 1380   27.580   3840.87     3.8319     0.1181     0.0354     8.1284
 1381   27.600   3842.04     3.8403     0.1228     0.0380     8.1437
 1382   27.620   3843.05     3.8187     0.1197     0.0386     8.1492
 1383   27.640   3844.68     3.7773     0.1214     0.0401     8.1363
 1384   27.660   3846.40     3.7558     0.1257     0.0428     8.1603
 1385   27.680   3847.68     3.7243     0.1253     0.0429     8.1504
 1386   27.700   3848.78     3.7740     0.1241     0.0413     8.1449
 1387   27.720   3849.89     3.8349     0.1139     0.0428     8.1260
 1388   27.740   3850.78     3.8354     0.1177     0.0447     8.1133
 1389   27.760   3851.77     3.8870     0.1149     0.0486     8.1412
 1390   27.780   3852.65     3.9895     0.1269     0.0545     8.1822
 1391   27.800   3853.79     3.9095     0.1279     0.0552     8.1763
 1392   27.820   3854.82     3.8545     0.1306     0.0541     8.1596
 1393   27.840   3856.48     3.8346     0.1215     0.0552     8.1646
 1394   27.860   3858.07     3.8802     0.1314     0.0596     8.1606
 1395   27.880   3860.04     3.9712     0.1355     0.0633     8.1790
 1396   27.900   3861.29     4.0165     0.1340     0.0644     8.1806
 1397   27.920   3862.52     4.0909     0.1320     0.0667     8.1867
 1398   27.940   3863.92     3.9621     0.1409     0.0645     8.1675
 1399   27.960   3865.56     3.9552     0.1386     0.0653     8.1774
 1400   27.980   3866.60     3.9166     0.1383     0.0659     8.1757
 1401   28.000   3867.66     3.8775     0.1309     0.0660     8.2335
 1402   28.020   3868.88     3.8944     0.1356     0.0690     8.2132
 1403   28.040   3870.08     4.0127     0.1355     0.0722     8.2484
 1404   28.060   3870.90     3.9527     0.1320     0.0727     8.2321
 1405   28.080   3872.05     3.8978     0.1336     0.0734     8.2567
 1406   28.100   3872.98     3.8077     0.1384     0.0722     8.2820
 1407   28.120   3874.54     3.7384     0.1364     0.0728     8.2942
 1408   28.140   3875.61     3.7535     0.1350     0.0731     8.3368
 1409   28.160   3876.67     3.7095     0.1396     0.0722     8.3400
 1410   28.180   3878.13     3.6518     0.1271     0.0731     8.3049
 1411   28.200   3879.26     3.6351     0.1168     0.0755     8.3135
 1412   28.220   3880.47     3.5835     0.1044     0.0768     8.3273
 1413   28.240   3881.74     3.4708     0.1079     0.0825     8.2970
 1414   28.260   3882.95     3.3066     0.1114     0.0815     8.3356
 1415   28.280   3884.29     3.3095     0.1108     0.0778     8.3373
 1416   28.300   3885.40     3.4352     0.1096     0.0791     8.3070
 1417   28.320   3886.89     3.4519     0.1192     0.0810     8.3346
 1418   28.340   3888.81     3.5163     0.1269     0.0904     8.3475
 1419   28.360   3890.51     3.5123     0.1215     0.0939     8.3240
 1420   28.380   3892.00     3.5952     0.1122     0.0979     8.3657
 1421   28.400   3893.50     3.6086     0.1244     0.0968     8.3325
 1422   28.420   3894.97     3.7442     0.1261     0.1013     8.3688
 1423   28.440   3896.26     3.7432     0.1278     0.1040     8.3466
 1424   28.460   3897.44     3.6580     0.1317     0.1039     8.3612
 1425   28.480   3899.22     3.6143     0.1276     0.1044     8.3571
 1426   28.500   3900.95     3.6642     0.1268     0.1077     8.3870
 1427   28.520   3902.18     3.6492     0.1177     0.1093     8.3751
 1428   28.540   3903.33     3.5904     0.1180     0.1098     8.3806
 1429   28.560   3904.54     3.5585     0.1162     0.1117     8.3868
 1430   28.580   3905.53     3.5268     0.1188     0.1122     8.3955
 1431   28.600   3906.61     3.4842     0.0974     0.1134     8.3881
 1432   28.620   3907.69     3.4329     0.1070     0.1126     8.3924
 1433   28.640   3908.84     3.4081     0.1062     0.1129     8.4054
 1434   28.660   3910.04     3.4292     0.0974     0.1148     8.3978
 1435   28.680   3910.89     3.4413     0.1027     0.1152     8.4122
 1436   28.700   3912.01     3.4169     0.1014     0.1160     8.4028
 1437   28.720   3913.80     3.3467     0.0993     0.1195     8.4024
 1438   28.740   3914.77     3.3995                0.1215     8.4195
 1439   28.760   3916.14     3.3779                0.1241     8.4150
 1440   28.780   3917.99     3.3143                0.1284     8.4626
 1441   28.800   3919.20     3.3597                0.1314     8.4179
 1442   28.820   3920.45     3.3795                0.1345     8.4452
 1443   28.840   3922.35     3.2839                           8.4507
 
 
